EEG1,EEG2,EEG3,EEG4,EEG5,EEG6,EEG7,EEG8
0,0,0,0,0,0,0,0
-1140.7,-5209.1,-2306.4,-4415.1,-1776.6,2679.1,-2452.4,-593.4
-1125.5,-5197,-2289.6,-4401.1,-1766.3,2690,-2443.8,-581.5
-1124.3,-5198.1,-2291.2,-4402.4,-1769,2676.7,-2448.6,-581.9
-1137,-5212.7,-2307.8,-4413.9,-1781.4,2657.9,-2458.9,-592.7
-1170.8,-5236.6,-2331.4,-4436.2,-1803.6,2628.6,-2483.9,-617
-1189.2,-5258.7,-2356,-4459.7,-1820.2,2594.2,-2508.8,-641.7
-1192.2,-5258.2,-2355.9,-4465.3,-1822.5,2594.8,-2511.6,-643.1
-1186.3,-5242.1,-2344.7,-4457.9,-1817.8,2598.9,-2501.3,-638.2
-1165.6,-5220.7,-2323.2,-4439.2,-1797.6,2620.9,-2477.3,-618.5
-1145.8,-5199.1,-2295.4,-4415.7,-1776.6,2642.6,-2453.5,-598.2
-1137.7,-5195.1,-2283.7,-4405.6,-1767,2653.3,-2444.1,-586.6
-1140.8,-5208.2,-2292.9,-4411.1,-1772.8,2653,-2452.2,-590.3
-1153.5,-5226.6,-2315.1,-4430.6,-1789.8,2641.7,-2471.2,-605
-1172.6,-5247.1,-2343.1,-4457.9,-1817.2,2619.3,-2494.2,-631.3
-1179.7,-5259.8,-2361.1,-4470.5,-1827.4,2616.4,-2508.6,-639.5
-1187.9,-5257.1,-2354.2,-4466.9,-1821.9,2617.6,-2508.5,-637.8
-1175.1,-5238.5,-2332.5,-4450.4,-1802.8,2625.3,-2508.9,-629
-1152.6,-5210.5,-2305.1,-4425.6,-1777.6,2652.3,-2468.1,-603
-1134.3,-5196.4,-2284.9,-4405.4,-1760.6,2670.9,-2440.2,-584.8
-1132.8,-5197.8,-2285.3,-4405.4,-1764,2672.5,-2441.7,-585.2
-1139.7,-5209.8,-2299.1,-4414,-1771.8,2669.6,-2454.6,-591.6
-1162.4,-5236.3,-2326.3,-4434.5,-1796.1,2648.3,-2481.7,-614.9
-1184.7,-5256.7,-2352.4,-4455.9,-1818.2,2632.8,-2502.3,-634.8
-1189.5,-5259.9,-2359.6,-4465.4,-1822.8,2635.9,-2503.5,-638.3
-1182.1,-5253.8,-2352.6,-4459.4,-1818.2,2640.9,-2493.6,-632.9
-1163.3,-5235.9,-2332.8,-4442.3,-1800.4,2656.6,-2458,-615
-1136.1,-5211.7,-2299.9,-4416,-1773,2669.2,-2443.1,-587
-1126.1,-5200.8,-2285,-4401.8,-1761.1,2667.2,-2432.9,-573.3
-1137.9,-5199.3,-2286.7,-4402.1,-1757.8,2656.2,-2431.8,-573.4
-1150.9,-5217.8,-2306.3,-4417.5,-1766.3,2644.3,-2449.3,-587
-1171.1,-5241.2,-2329.8,-4441.5,-1791.5,2621.7,-2472.2,-610.2
-1186.1,-5251.8,-2345.6,-4459.7,-1809.6,2609.9,-2485.8,-627.1
-1188.7,-5246.2,-2349.2,-4464.6,-1811.2,2612.6,-2485.9,-628.3
-1178,-5234.4,-2337.2,-4453.9,-1802.4,2621.2,-2470.5,-619.9
-1155.1,-5216.9,-2314.1,-4428.7,-1779.9,2643.3,-2447.9,-598.6
-1133.5,-5202.7,-2293.2,-4407.8,-1759.6,2666.5,-2430.4,-577
-1127.3,-5201.2,-2286.5,-4403.8,-1758.5,2670.3,-2430.8,-574.4
-1134.8,-5218.7,-2298.2,-4416.1,-1772.8,2658.6,-2450.3,-587.9
-1158.3,-5239.5,-2318,-4438,-1792.7,2641.3,-2471.7,-605.4
-1187.6,-5255.4,-2341,-4457.4,-1814.2,2620,-2492.1,-624.8
-1194.9,-5260,-2352,-4467.2,-1818.4,2614.7,-2517.3,-632.8
-1190.9,-5253.7,-2351.7,-4466.2,-1810.2,2620.1,-2517,-632.1
-1178.3,-5235.4,-2333.4,-4447.5,-1798.1,2632.1,-2483.7,-620.7
-1155.1,-5217.4,-2311,-4425.2,-1776.9,2658,-2453.9,-598.5
-1136.1,-5204.4,-2297.9,-4409.9,-1763.3,2678,-2442.8,-582.2
-1132.3,-5207.1,-2297.5,-4408.1,-1767.7,2676.3,-2448.3,-586
-1139.3,-5223.7,-2309.8,-4417.4,-1778.2,2668.2,-2465,-596
-1160.1,-5244.8,-2331.4,-4437.1,-1800.4,2647.8,-2486.6,-616.4
-1179.6,-5260,-2345.3,-4454.7,-1820.9,2628.1,-2501.6,-636.5
-1183.3,-5258.6,-2349.7,-4461.5,-1822.5,2631.6,-2499.7,-635.8
-1175.3,-5247,-2342.3,-4454.1,-1815.1,2641.9,-2491.6,-626.8
-1153.8,-5226.5,-2320.1,-4435.2,-1797.7,2643,-2470,-611.2
-1132.7,-5206.8,-2300.6,-4414.3,-1774.2,2655.5,-2445.2,-586.6
-1135.3,-5201.3,-2289.9,-4406.8,-1763.4,2653.9,-2439.7,-578.6
-1140.6,-5206.4,-2293.7,-4409,-1761.5,2649.1,-2443.4,-582.7
-1154,-5222.1,-2311.2,-4422.8,-1775.4,2637.5,-2461.6,-594.8
-1175.2,-5235.6,-2330.2,-4442.5,-1800.3,2612.6,-2483.5,-618.9
-1186.7,-5242.1,-2338.8,-4452.4,-1811.9,2602.2,-2492.2,-631.4
-1184,-5240.3,-2340.2,-4454.5,-1810.5,2609.6,-2489.2,-629.3
-1170.1,-5234.8,-2325.9,-4443.3,-1801.7,2619.3,-2475.5,-620.9
-1149,-5220.2,-2305.2,-4423.8,-1782.2,2639.8,-2456.9,-601.8
-1133.7,-5204.6,-2297.1,-4412,-1766.9,2664.5,-2440.9,-583.9
-1128.3,-5202,-2292.7,-4408,-1765.8,2668.8,-2438.4,-581
-1138.4,-5209.6,-2297.1,-4412.6,-1772.2,2664.2,-2445.9,-586.7
-1164.1,-5224.7,-2315.8,-4425.2,-1788.2,2647.8,-2467.9,-600.6
-1181.4,-5239.2,-2326.2,-4440.2,-1800.2,2627.3,-2498.7,-617.7
-1188.4,-5243.4,-2333.1,-4450.7,-1801.7,2623.3,-2504.2,-626.3
-1183.2,-5240.5,-2336.6,-4449.2,-1801.3,2628.5,-2487.3,-625.1
-1166.1,-5228.1,-2327.2,-4436.1,-1790.9,2642.1,-2467.4,-614.7
-1147,-5220.6,-2320.1,-4424.3,-1780,2661.6,-2459.7,-602.1
-1136.2,-5215.5,-2314.5,-4415.2,-1772.2,2676.2,-2453.9,-591
-1135.2,-5218,-2310.6,-4413.2,-1774.2,2676.5,-2455.2,-591.1
-1144.6,-5232,-2318.6,-4423,-1786.2,2666.1,-2469.9,-602.5
-1162.1,-5250.8,-2331.7,-4441.1,-1805.9,2646.1,-2490.9,-621.6
-1177.4,-5255.3,-2342.1,-4454,-1818.6,2633.6,-2496.1,-632.5
-1181.1,-5254.9,-2349.4,-4458.9,-1822.2,2634.7,-2502.6,-634.1
-1169,-5244.3,-2340.1,-4449.8,-1813.6,2629.7,-2490.8,-624.5
-1153.1,-5226.4,-2322.2,-4432.1,-1797.1,2632,-2467,-608.5
-1146.7,-5212.8,-2306.6,-4416,-1775.3,2641.4,-2450.8,-592
-1138.9,-5210.2,-2298.4,-4407.7,-1762.5,2650.8,-2446,-583.5
-1142.9,-5209.3,-2299.9,-4410.2,-1768.7,2645.5,-2449.7,-588.9
-1154.4,-5214.4,-2311.2,-4422,-1779.2,2635.5,-2462.1,-598.6
-1170.1,-5228.3,-2327.3,-4438.8,-1797.8,2617.9,-2478.9,-616.9
-1179,-5237.4,-2336.5,-4452.6,-1811.5,2608.5,-2487.7,-630.2
-1175.4,-5243.4,-2336.3,-4454.4,-1809.7,2615,-2485.2,-627.9
-1164.4,-5238.8,-2325.4,-4446.8,-1803.3,2623.1,-2475.4,-621.5
-1148.3,-5225.3,-2308.2,-4431.9,-1786.8,2640.7,-2459,-605.4
-1134.6,-5215.2,-2296.8,-4419.7,-1772.3,2658.8,-2448.7,-589.2
-1134.8,-5209.7,-2297.5,-4415.4,-1769.5,2665.3,-2441.9,-584.2
-1147.8,-5216,-2303.6,-4416.3,-1765.4,2664.2,-2452.5,-585
-1160.5,-5230.3,-2316.8,-4426.7,-1773,2653,-2485.7,-595.9
-1178.2,-5240.4,-2325.3,-4440.9,-1792.7,2633.4,-2499,-615.5
-1187.4,-5250.8,-2337.4,-4450.6,-1802.9,2627.2,-2491.9,-625.6
-1182.4,-5247.1,-2340.5,-4450.8,-1800.8,2634.9,-2479.7,-623
-1166.2,-5233.4,-2327.7,-4437.7,-1793.2,2645.8,-2464.4,-614.4
-1147.1,-5221.8,-2311.1,-4418.1,-1776.9,2664.6,-2450,-597.7
-1135.1,-5215.2,-2305.7,-4409.5,-1766.4,2679.4,-2443.1,-585.7
-1131.8,-5212.2,-2303.5,-4408.8,-1767.6,2681.3,-2440.5,-585.5
-1139.4,-5223.4,-2314.1,-4418.7,-1775,2678.9,-2453.3,-590.9
-1153.7,-5239.3,-2332.7,-4438.9,-1792.1,2666.6,-2467.3,-604.8
-1165.7,-5250.9,-2344.6,-4453,-1809.4,2649.8,-2470.1,-621.7
-1170.1,-5259.1,-2347.1,-4457.7,-1819.1,2624.5,-2496.2,-632.5
-1170.8,-5248,-2336.9,-4451.7,-1809,2612.3,-2485.4,-627.8
-1169.1,-5231.8,-2318.4,-4434.2,-1790.4,2615.6,-2466.2,-613.9
-1156.5,-5220.2,-2303.1,-4418.9,-1776.2,2632.3,-2452.7,-598.4
-1147.5,-5209.5,-2298,-4414.8,-1770.3,2644.4,-2448,-589.5
-1148.6,-5206.5,-2301.1,-4419.2,-1772.4,2645.7,-2450.7,-590.3
-1156.5,-5220.2,-2316,-4430.1,-1781.8,2641.5,-2464.5,-598
-1168.3,-5232.5,-2334,-4445.4,-1797,2631.8,-2477.4,-611
-1179.3,-5249.7,-2342.7,-4456.3,-1811,2619.5,-2487.3,-625.5
-1178.6,-5253.7,-2339.8,-4456.8,-1812.1,2619.8,-2487.6,-627.3
-1169.3,-5242.3,-2326.2,-4446.9,-1806.5,2623.8,-2475.1,-622.9
-1156.2,-5225.4,-2308.3,-4430.6,-1793.8,2632.5,-2460.3,-612.8
-1147.8,-5208.2,-2297.2,-4415.4,-1776.1,2653.9,-2444.1,-593.1
-1146.6,-5204.9,-2294,-4409.5,-1764.1,2663.5,-2448.9,-585.2
-1146.3,-5211.4,-2299.8,-4413.8,-1765.5,2661.8,-2473.3,-589.6
-1156.9,-5230.2,-2321.6,-4429.3,-1779.4,2654.1,-2474.9,-601
-1169.7,-5242.3,-2338.8,-4444,-1799,2639.1,-2484.5,-619.3
-1180.4,-5249.5,-2346.1,-4454.7,-1810.6,2631.2,-2491.5,-630.8
-1179.3,-5247.6,-2340.8,-4447.8,-1806.9,2636.2,-2487.4,-627
-1168.7,-5232.3,-2321.1,-4433,-1799.1,2641.6,-2472.4,-620.9
-1153.5,-5217.4,-2306.2,-4417.5,-1782.5,2659.7,-2457.3,-604.4
-1136.5,-5209.6,-2301.2,-4407.2,-1768.9,2681.6,-2448.4,-588.5
-1134.6,-5212,-2304,-4410.4,-1773,2680.4,-2449.9,-591.7
-1138.3,-5223,-2313.7,-4418.1,-1778.2,2674.8,-2467.2,-594
-1146.3,-5237.3,-2328,-4428.9,-1790,2647.7,-2476,-604.1
-1163.2,-5241.5,-2335.8,-4441,-1803,2618.8,-2477.3,-617.4
-1177.2,-5240.3,-2332.1,-4447.2,-1801.1,2608.9,-2476.5,-623.7
-1172.8,-5232.7,-2325.1,-4442.8,-1793.2,2613.4,-2468.1,-619.3
-1161.8,-5219.1,-2308.6,-4430.9,-1783.3,2623.5,-2453.2,-609.2
-1147.1,-5204.9,-2295.5,-4416.9,-1767.7,2642.8,-2444.8,-592.7
-1138,-5196.1,-2290.4,-4410.3,-1760.1,2655.4,-2440.3,-582.8
-1140,-5203.2,-2297.2,-4416.1,-1766.5,2653.4,-2447.3,-588.2
-1148.1,-5231.5,-2314.4,-4428.2,-1782,2640.7,-2468.5,-602.5
-1164.6,-5242.7,-2328.4,-4443.7,-1800.7,2623.4,-2479.5,-619.6
-1178.2,-5247.1,-2340.4,-4454.4,-1815.2,2613.2,-2486.3,-632.7
-1179.4,-5245.9,-2338.5,-4454.4,-1816.4,2615.6,-2485.6,-633.8
-1180.4,-5233.3,-2328.1,-4446.6,-1809.7,2623.7,-2474.4,-627.5
-1170.2,-5218.3,-2316.3,-4432.4,-1792.6,2641.8,-2466.4,-608.1
-1152.8,-5209.9,-2300.2,-4416.2,-1769.1,2659.8,-2472.6,-591.7
-1145.5,-5210.2,-2297.1,-4410.3,-1762.9,2665.8,-2471,-587.7
-1150.2,-5223,-2309.1,-4419.2,-1773.1,2660.6,-2467,-596.5
-1156.7,-5234.3,-2319.8,-4428.7,-1784.7,2651.2,-2476.1,-606.2
-1170,-5245.2,-2335.3,-4443.8,-1801.8,2637.2,-2486.8,-621.1
-1178.9,-5250,-2342.3,-4452.5,-1810.2,2633.6,-2487.4,-629.1
-1180.2,-5242,-2337.7,-4450,-1805.6,2642.7,-2474,-623.2
-1174,-5232.5,-2332.9,-4439.7,-1795.7,2656.5,-2460.2,-612.5
-1162.7,-5226.5,-2325.8,-4427.6,-1782.5,2672.8,-2451.2,-599.1
-1148.2,-5222.7,-2313.8,-4414.8,-1769.8,2688,-2437.3,-583.8
-1143.4,-5232.5,-2314.6,-4419.2,-1775.6,2681.2,-2444.2,-588
-1139.7,-5233.7,-2308.6,-4419.7,-1783,2655,-2467,-595.3
-1153.9,-5234.2,-2310.4,-4425.7,-1795.1,2625.1,-2475.9,-606.2
-1171.5,-5239.5,-2320.7,-4440.1,-1804.2,2607.1,-2484.2,-622.4
-1170.2,-5236.5,-2326.4,-4442.3,-1801.3,2611.5,-2479.9,-622
-1163.5,-5227.4,-2322.1,-4440.4,-1796.8,2620.2,-2472.7,-616.2
-1156.3,-5220.1,-2318.1,-4436.8,-1790.7,2630,-2464,-610.3
-1143.6,-5210.5,-2301.5,-4423.9,-1776,2645.6,-2452.1,-595.2
-1135.4,-5213.7,-2295,-4415.9,-1768.5,2655.5,-2451.9,-586.3
-1135.8,-5227.4,-2295.2,-4417.3,-1770.9,2653.3,-2454.8,-589.3
-1139.6,-5239,-2297.9,-4420.2,-1774.6,2646.9,-2460.5,-593.9
-1151.9,-5250.9,-2311.1,-4436.1,-1791.1,2632,-2467.4,-609.5
-1159.3,-5254.3,-2319.4,-4448.1,-1802,2625.3,-2468.9,-619.9
-1164.5,-5249.3,-2318.9,-4447.9,-1799.3,2632.1,-2465,-617.6
-1159.8,-5240,-2318.1,-4443.6,-1785.8,2640.7,-2466.2,-611.6
-1148.2,-5236.7,-2311,-4434.9,-1775.4,2651.3,-2472.4,-604
-1139.6,-5247.3,-2309.6,-4427.5,-1769.4,2661,-2459.2,-597.9
-1138.2,-5252.2,-2309.2,-4427.7,-1769.7,2665.7,-2456.2,-595.2
-1142.1,-5259.6,-2310.5,-4431.5,-1772.7,2663.9,-2459.1,-596.6
-1149,-5266.4,-2316.3,-4438,-1782.4,2655.4,-2466.2,-604.9
-1161.7,-5270.9,-2328.7,-4449.7,-1799.5,2642,-2474.5,-620.3
-1169.4,-5271.7,-2336.6,-4457.6,-1804.3,2643.7,-2473.3,-623.4
-1163.1,-5270,-2336.3,-4456.8,-1800.7,2652.9,-2467.4,-618.7
-1153.9,-5269.7,-2332,-4452.5,-1797.2,2658.8,-2454.5,-613.2
-1139.6,-5268.6,-2323.1,-4443.6,-1787.4,2665.5,-2453.4,-603.4
-1124.6,-5261.1,-2307.9,-4431.9,-1776,2661.3,-2455.8,-591
-1129.5,-5257.2,-2297,-4426.8,-1773.7,2646.3,-2450.4,-587.6
-1139.1,-5262.4,-2294.1,-4430.6,-1769.2,2639.2,-2452.3,-590.3
-1146.9,-5266.3,-2300.9,-4438.4,-1775.7,2630.4,-2452.7,-597.1
-1158.7,-5271.9,-2311.6,-4448.6,-1789.5,2620.1,-2457.9,-609.8
-1163.4,-5264,-2319.9,-4454,-1793.7,2622.3,-2461.2,-614
-1159.8,-5259.9,-2319.1,-4451.2,-1790.9,2629.2,-2458.3,-610.7
-1152.8,-5270.1,-2316.3,-4447.2,-1788.4,2632.6,-2460.1,-609
-1139.2,-5264.2,-2305.2,-4436.3,-1776.3,2647.7,-2452.1,-595.6
-1131.8,-5261.3,-2298,-4428.3,-1769.5,2657.9,-2448.8,-586.5
-1132.9,-5264.1,-2297.7,-4430.8,-1769.7,2660.7,-2448.6,-585.7
-1133.8,-5263.3,-2304.4,-4434.2,-1770.6,2663.4,-2448.4,-585.6
-1149.9,-5266.6,-2308.7,-4443,-1780.8,2652,-2453,-596.5
-1162.4,-5272.1,-2316.7,-4453.3,-1786.2,2639.4,-2471.4,-609.8
-1158,-5270.6,-2317.4,-4453,-1784.7,2643.2,-2481.3,-609.8
-1153.4,-5273.6,-2315.3,-4448.9,-1785.1,2643.5,-2478,-610.4
-1145.5,-5271.7,-2314.8,-4444.3,-1780,2653.2,-2454.1,-604.7
-1132.6,-5267.5,-2309.5,-4435.1,-1766.6,2672.8,-2446.6,-589.8
-1128.4,-5266.7,-2307.9,-4429.2,-1762.5,2681.4,-2444.5,-583.5
-1128.5,-5264.8,-2308.7,-4431,-1763.4,2685.4,-2440.5,-582.8
-1129.9,-5265.3,-2309.8,-4432.1,-1766.5,2683.2,-2443.4,-585.1
-1143.6,-5273.4,-2321.1,-4444.1,-1782.5,2667.7,-2453.5,-600.5
-1150.8,-5276.7,-2330.6,-4453.2,-1795.2,2661.4,-2446.6,-611.3
-1152,-5288.4,-2336.1,-4457.2,-1802.2,2647.7,-2464.3,-618.5
-1152.2,-5284.5,-2331.9,-4456.4,-1801.2,2630.2,-2467.7,-619.3
-1152.1,-5272.1,-2322.8,-4445.1,-1778.5,2630,-2455.5,-604.7
-1145.3,-5266.1,-2312.9,-4436.2,-1768.5,2641.6,-2449.5,-593.7
-1141.4,-5264.1,-2313.1,-4436,-1768,2648.5,-2449.4,-590
-1139.5,-5252.8,-2310.2,-4434.5,-1765.3,2653.4,-2446.5,-585.8
-1143.9,-5257.7,-2312.8,-4439,-1773.2,2646,-2453.3,-593.1
-1151.7,-5266.5,-2317.7,-4447.7,-1787.7,2633.6,-2460,-607
-1154.9,-5278.3,-2318.6,-4452.7,-1796.6,2627,-2465.4,-615.4
-1157.1,-5283,-2315.6,-4454.4,-1800.8,2622,-2467.9,-619.7
-1153.9,-5279.1,-2314.4,-4451.6,-1797.9,2628.2,-2463.5,-615.9
-1144.6,-5273.1,-2309.2,-4444.5,-1785.1,2645.7,-2456.2,-601.8
-1144.2,-5261,-2301.4,-4433.1,-1771.8,2663,-2441.7,-586
-1142.2,-5259.6,-2305.7,-4431.6,-1766.6,2671.8,-2439,-579.8
-1139.7,-5258.1,-2305.1,-4430.2,-1757.6,2673.6,-2455.2,-580.4
-1146.3,-5264.8,-2311.7,-4434.4,-1769.2,2661.5,-2465.1,-592.5
-1156.3,-5277.8,-2324.3,-4448,-1787.1,2647.8,-2461.7,-609.7
-1160.7,-5281.5,-2327.4,-4454.6,-1794.7,2643.6,-2464.5,-616.4
-1162.2,-5283.4,-2328.6,-4454.9,-1797.2,2642.7,-2464,-618.3
-1155.3,-5279.8,-2325.5,-4445.7,-1788.1,2655.6,-2458.2,-608.9
-1142.9,-5267.9,-2315.7,-4435.9,-1772.8,2676.9,-2445.9,-592.2
-1132.3,-5264.9,-2312.9,-4433.4,-1767.4,2689.4,-2444.1,-584.1
-1124.3,-5263.2,-2309.3,-4431.8,-1766,2695,-2442.8,-580.5
-1126.5,-5267.3,-2310.3,-4433.7,-1770.7,2679,-2432.3,-582.7
-1136.8,-5273.2,-2308.8,-4438,-1783.7,2651.1,-2449.9,-596.8
-1151.2,-5275.1,-2308.1,-4446.6,-1794.1,2631.2,-2456.8,-610.9
-1161.6,-5274.5,-2311.4,-4451,-1786.2,2619,-2455.5,-610.2
-1161.9,-5278.3,-2315.9,-4455.4,-1785.9,2621.5,-2458.1,-610.2
-1149.4,-5270,-2308.8,-4446.6,-1774.5,2635,-2448.8,-599.2
-1135.6,-5254.1,-2303.7,-4434.7,-1761,2654.8,-2441.9,-584
-1130.2,-5248.8,-2301.7,-4431.6,-1757.9,2662.7,-2438.4,-579.3
-1125.9,-5251.1,-2298.9,-4425.6,-1756.2,2665.3,-2436.7,-577.4
-1133.5,-5270.7,-2307.8,-4434.1,-1773.6,2647.2,-2450.2,-594.9
-1146.6,-5278.9,-2315.4,-4445.4,-1789.5,2631,-2459.2,-609.9
-1157,-5285.6,-2322.8,-4455.6,-1799.3,2625.4,-2465.9,-619.1
-1161.5,-5294,-2329,-4463.9,-1804.1,2625,-2470.8,-623
-1159.2,-5287.7,-2329.2,-4459.6,-1800.7,2629.5,-2463.7,-620.7
-1157.1,-5275.1,-2317.9,-4445.3,-1779.8,2649.7,-2451.7,-601.5
-1146.3,-5268.7,-2305.7,-4434.3,-1759.6,2665,-2463.2,-587.2
-1135.9,-5259.6,-2293.9,-4426.1,-1755.2,2670,-2461.2,-582.7
-1135.2,-5264.6,-2302.1,-4428.8,-1758.5,2672.3,-2458.8,-583.7
-1144.8,-5275,-2314.1,-4441.7,-1774.3,2661.3,-2451.5,-596.5
-1155.8,-5283.5,-2323,-4453.8,-1789.4,2648.9,-2456.5,-610.8
-1160.6,-5289.9,-2333.5,-4463.2,-1795.6,2650.5,-2462.5,-615.5
-1164,-5288,-2333.8,-4462.6,-1797.7,2651,-2459.8,-617.3
-1156.8,-5283.9,-2325.4,-4454.2,-1791,2658.3,-2455.2,-611.6
-1144.3,-5277.7,-2316.5,-4442.1,-1777.3,2676,-2450.7,-596
-1133.8,-5269.5,-2303,-4429,-1768.8,2685.7,-2446.4,-584.8
-1126.4,-5268.5,-2296.6,-4424.5,-1764.2,2679,-2447.7,-579.2
-1132.5,-5273.4,-2300.2,-4430.3,-1770,2667,-2445.8,-583.4
-1153,-5274.8,-2305.1,-4439,-1779.2,2649.4,-2446.9,-595.1
-1163.6,-5278.1,-2318,-4451.3,-1782.4,2627.3,-2450.4,-605.7
-1168.2,-5279.1,-2326.9,-4457.7,-1785.8,2628,-2453.5,-609.1
-1166.9,-5276.8,-2323.8,-4455.9,-1788.2,2625.6,-2454.1,-612.6
-1157.6,-5268,-2315.8,-4448.7,-1780.2,2634.7,-2452.4,-605.3
-1144.3,-5261.2,-2305.4,-4437.8,-1766.4,2652,-2444.1,-590.5
-1133.2,-5259.5,-2291.4,-4424.8,-1757.8,2661.2,-2435.2,-580.8
-1128.9,-5265.7,-2288.1,-4422,-1755.3,2665.1,-2433.6,-577.3
-1134.4,-5267.5,-2294.6,-4429,-1763.7,2660.7,-2434,-583.4
-1148.5,-5273.4,-2304.9,-4441.7,-1779.2,2646.6,-2438.1,-597.9
-1159.5,-5280.7,-2319.1,-4455.2,-1787.9,2646,-2443.1,-604.6
-1171,-5283,-2325.4,-4461.5,-1793.8,2644.6,-2449.3,-608.8
-1161.4,-5275.5,-2315.1,-4455.1,-1787.5,2646.5,-2465.4,-606
-1149.1,-5274.1,-2310.6,-4445.8,-1771.5,2657.4,-2472,-598.6
-1137.1,-5279.2,-2308.1,-4434.7,-1765.4,2666.8,-2465.7,-592.7
-1133,-5271.4,-2302.4,-4429.5,-1765,2669.1,-2445.1,-591
-1131.3,-5270.3,-2304,-4429.1,-1765.3,2672.1,-2446.1,-588.4
-1139.2,-5278.6,-2310.2,-4437.5,-1778.8,2661,-2453.9,-600.9
-1150.4,-5285.6,-2321.5,-4452.5,-1793.2,2652.1,-2459.7,-614.8
-1158.9,-5290.6,-2331.7,-4463.6,-1798.5,2652.4,-2462.9,-618.8
-1159.6,-5298.9,-2334.6,-4465.3,-1802.1,2650.3,-2468.1,-622.2
-1150.4,-5298.9,-2326.4,-4457.1,-1796.2,2656.4,-2468.5,-616.3
-1137.2,-5296.6,-2317.9,-4446.9,-1782.9,2672.5,-2466.5,-601.3
-1123,-5284.9,-2299.6,-4433.2,-1770.9,2670,-2448.3,-588.6
-1120.1,-5275.1,-2289.6,-4427,-1763.2,2660.1,-2437.3,-583.7
-1133.2,-5273.3,-2283.9,-4429.1,-1756.9,2646.9,-2434.2,-583.3
-1144.6,-5275.8,-2293.3,-4440.2,-1768.9,2636.4,-2434.9,-594
-1155.6,-5282.5,-2307.3,-4451.8,-1782.5,2628.6,-2443.4,-606.5
-1162.7,-5286.2,-2322,-4462.5,-1790.4,2626.6,-2456.4,-613.9
-1162,-5288.5,-2324.2,-4462.7,-1792.9,2626.3,-2460.5,-616.2
-1152.5,-5294.2,-2317.3,-4454.9,-1785.1,2635.4,-2459.8,-608.6
-1138.5,-5290.4,-2304.5,-4442.2,-1770.1,2653.2,-2450,-592.8
-1126,-5278.5,-2290.8,-4431.3,-1761.4,2663.8,-2436.6,-582.4
-1122.6,-5273.7,-2287.6,-4429.4,-1760.2,2667,-2431.9,-580.4
-1129.3,-5270.4,-2290.3,-4432.1,-1764.1,2664.9,-2428.9,-582.6
-1147.9,-5273.7,-2301,-4439.5,-1777.3,2652.6,-2436.8,-594.1
-1158.4,-5285.7,-2313.5,-4450.5,-1784.3,2644.9,-2470.7,-604.8
-1163.3,-5293,-2321.2,-4458.5,-1784.2,2642.4,-2483.6,-611.6
-1163.7,-5295.8,-2320.9,-4457.9,-1787.6,2641.5,-2472.5,-614.5
-1151.2,-5293.9,-2314,-4450.8,-1776.4,2656.9,-2458.7,-602.2
-1134,-5281.8,-2301.2,-4437.9,-1763.4,2677.1,-2447.3,-587
-1124.4,-5272.8,-2290.6,-4425.2,-1756.2,2686.2,-2438.6,-579
-1122,-5267.7,-2287.9,-4421.2,-1754.5,2689.1,-2432.5,-576.2
-1126.1,-5267.6,-2292.4,-4428.1,-1764.4,2681,-2433.9,-584.7
-1137.3,-5280.4,-2300.5,-4439.6,-1781.5,2663,-2449.7,-602.2
-1151.3,-5292.9,-2314.2,-4456.6,-1798.2,2652.3,-2462,-617.5
-1158.4,-5310.2,-2332.3,-4470.5,-1811.5,2644.6,-2464,-629.1
-1156.4,-5305.1,-2330.9,-4466.3,-1805.8,2636,-2472.5,-623
-1148.2,-5293.1,-2319.5,-4451.6,-1782.7,2642.2,-2460.1,-603.6
-1138.6,-5280.3,-2303.9,-4435.5,-1759.9,2651,-2445.1,-585.2
-1130.3,-5271.2,-2292.5,-4431,-1756.2,2656.1,-2436.6,-581.2
-1128.5,-5264.3,-2289.7,-4430.1,-1755.6,2657.7,-2432.5,-578.5
-1136.3,-5264.3,-2294.8,-4438.7,-1769.4,2643.6,-2439.2,-592.5
-1152.5,-5278.1,-2303,-4454.1,-1789.7,2623.6,-2454.3,-613.6
-1158.3,-5296.2,-2317.5,-4467.1,-1798.4,2623,-2467.9,-620.8
-1160.6,-5304.8,-2324.8,-4472.7,-1803.5,2621.7,-2472.9,-625.2
-1151.7,-5302.5,-2319.9,-4465.1,-1794.6,2633.7,-2467.8,-616.3
-1133.3,-5291.9,-2311.4,-4451,-1775.6,2659,-2455.6,-595.1
-1124.9,-5270.7,-2295.5,-4435.3,-1762.4,2673.5,-2433.3,-580.2
-1125.6,-5261.5,-2283.1,-4425,-1756.6,2679,-2428.3,-573.1
-1125,-5263,-2283.6,-4426.4,-1754.9,2674.2,-2449,-576.6
-1139.2,-5273.4,-2293.4,-4437.3,-1768.1,2654.7,-2461.5,-595.4
-1159.9,-5296.2,-2316.8,-4457.3,-1789.1,2638.3,-2468.6,-616.5
-1166.7,-5306.1,-2332.3,-4469,-1795.9,2639.3,-2471.9,-621.4
-1167.6,-5308.3,-2335.9,-4470.1,-1797.8,2642.4,-2472.6,-621.9
-1156.2,-5300.8,-2331.1,-4456.5,-1782.7,2664.7,-2462.8,-604.5
-1136.9,-5284.7,-2316.6,-4437.9,-1761.8,2691.6,-2442.9,-581
-1122.8,-5270.8,-2300.4,-4425.7,-1753.1,2701.6,-2428.6,-571.7
-1119.3,-5269.2,-2295.8,-4424.7,-1754.2,2702.9,-2428.9,-569.2
-1125,-5270.5,-2296.7,-4432.1,-1764.7,2690.6,-2435.3,-578.2
-1137.6,-5284,-2303.3,-4444.8,-1785.2,2650.3,-2446.5,-599.9
-1154.8,-5299.8,-2315.1,-4457.6,-1795.8,2624.2,-2461.1,-610.7
-1167.2,-5303.3,-2321.5,-4464,-1794.2,2615.9,-2465,-615.1
-1162.2,-5301.8,-2319.7,-4461,-1787.2,2618.6,-2464.1,-613.8
-1146,-5286.6,-2300.1,-4442.6,-1768.6,2638.9,-2448.3,-594.5
-1130.6,-5262.6,-2283.6,-4427.6,-1752.8,2662.1,-2428.6,-575.3
-1123.6,-5250,-2276.1,-4423,-1748.6,2670.5,-2421.8,-569.5
-1118.1,-5248.3,-2272.9,-4420.3,-1749.5,2669.5,-2420.5,-570.4
-1129.5,-5276,-2289.5,-4433.4,-1771.6,2646.1,-2443,-592.8
-1152.6,-5299.2,-2313.5,-4457.6,-1795.4,2625.2,-2465.3,-616.3
-1161.5,-5310.4,-2328.2,-4472,-1804.3,2622.5,-2475.2,-624.1
-1166.1,-5313.9,-2337.1,-4479,-1809.2,2622.2,-2478.1,-629.3
-1165.3,-5303.2,-2331,-4470.7,-1798.8,2634.8,-2467.5,-619.8
-1149.1,-5282,-2311.1,-4444.6,-1772.8,2662.8,-2452.2,-590.7
-1131.2,-5267.3,-2291.2,-4428.5,-1752.1,2679,-2452.5,-576.5
-1123.2,-5260.6,-2279.3,-4419.7,-1743.1,2684.1,-2443.7,-572.2
-1129.8,-5267.7,-2285.9,-4424.9,-1753.2,2675.3,-2433.9,-581.2
-1146.5,-5287.7,-2309.3,-4444.4,-1773.9,2659,-2450.8,-599.9
-1164.7,-5303.1,-2329.1,-4464.8,-1795.3,2644.6,-2466.9,-618.8
-1171.2,-5311.8,-2339.8,-4474.7,-1803.8,2641.8,-2474.8,-626
-1168.6,-5311.1,-2340.3,-4474.6,-1801.7,2646.4,-2473,-623.4
-1151.9,-5299.4,-2321.8,-4456.7,-1785.7,2662.9,-2460.1,-608.7
-1128.6,-5283.3,-2300,-4433.6,-1764,2687.6,-2442.6,-585.6
-1114.8,-5271.2,-2288.2,-4421.1,-1755.4,2699.7,-2437.2,-573
-1110.5,-5269.2,-2286.1,-4418.2,-1753.4,2699.5,-2430.4,-570.3
-1119.2,-5275,-2293.5,-4429.6,-1765.4,2671.9,-2435.2,-581.4
-1147.1,-5288.6,-2308.5,-4450,-1781.1,2634.5,-2449.7,-603.5
-1171.2,-5299.9,-2318.5,-4463.5,-1791.1,2617.9,-2461.2,-616.1
-1176.5,-5305.3,-2324.5,-4467.5,-1795.2,2616.8,-2466.3,-619.2
-1170.5,-5297.8,-2320.4,-4462.4,-1792.9,2619.9,-2465.2,-617.5
-1147.4,-5276.7,-2299.4,-4439.7,-1771,2642.3,-2450.3,-596.1
-1124.4,-5261.1,-2285.7,-4423.7,-1754.3,2665.9,-2435.2,-576.7
-1112.9,-5258.4,-2279.1,-4415.8,-1746.8,2676.9,-2424.4,-567.8
-1110.6,-5259.5,-2280.1,-4415.9,-1748.4,2677.3,-2424.3,-568.4
-1122.8,-5269.8,-2298.2,-4434.8,-1767.8,2663.9,-2435.7,-585.7
-1143.5,-5286,-2320.8,-4457.4,-1792.9,2641.9,-2454.1,-610.9
-1163.6,-5295.8,-2332.5,-4467.8,-1801.2,2635.7,-2463.2,-619.6
-1170.6,-5300.5,-2329.9,-4467.6,-1794.3,2634.1,-2477.7,-619.7
-1158.5,-5293.4,-2312,-4453.6,-1779.3,2644.6,-2485.3,-608.6
-1135.2,-5274.6,-2290.9,-4432.5,-1758.8,2669.6,-2462.5,-587.6
-1121,-5276,-2287.9,-4425,-1755.8,2679.1,-2443.3,-582.1
-1116.5,-5269.9,-2285.6,-4423,-1751.8,2687.8,-2432.2,-575.7
-1123.4,-5273.4,-2295.4,-4431.6,-1760.4,2683.9,-2434.2,-581.3
-1143.7,-5289.6,-2315.3,-4449.4,-1784.6,2662.8,-2450.9,-604.7
-1162.9,-5309.9,-2334.9,-4467.7,-1802.7,2648,-2473.7,-623.1
-1170.9,-5315.2,-2341,-4474.2,-1808.9,2643.7,-2481.3,-628.5
-1170.3,-5317.7,-2336.7,-4471,-1809,2642.4,-2483.3,-628.9
-1150.1,-5299.8,-2314,-4450,-1787.5,2657.3,-2471.9,-608.2
-1128.5,-5280.8,-2291.3,-4430.9,-1766.8,2665.2,-2445.6,-586.6
-1115.1,-5268.6,-2279.7,-4422.4,-1758.5,2676.3,-2430.8,-576.3
-1116.4,-5264.1,-2279.7,-4419.1,-1746.9,2666.6,-2423.1,-571
-1132.1,-5273,-2289.2,-4430.9,-1758,2649.9,-2427.4,-583.5
-1152,-5292.7,-2307.7,-4451.4,-1778.5,2631.5,-2442.3,-603.2
-1166.2,-5303.9,-2323.8,-4466.6,-1791.7,2624,-2460.8,-615.7
-1173.9,-5313.2,-2330.4,-4473.3,-1799.5,2617.8,-2472.4,-623.3
-1165.7,-5309.8,-2319.9,-4462.6,-1793.3,2624.1,-2466.2,-618.1
-1144.4,-5284.5,-2300.9,-4440.7,-1775.3,2645.2,-2450.6,-600.3
-1125.1,-5264.1,-2287.2,-4425,-1761.5,2663.5,-2436.8,-584.3
-1114.1,-5247.8,-2278.4,-4415.8,-1755.7,2673.7,-2425.9,-576.5
-1113.6,-5246.8,-2280.7,-4417,-1757.6,2675.4,-2427.1,-576.4
-1139.5,-5260,-2298,-4432.5,-1771.9,2661.3,-2437.1,-589.3
-1162.7,-5279.5,-2318.1,-4451.7,-1782.6,2643.8,-2465.4,-607.6
-1175.7,-5295.5,-2331.8,-4464.2,-1792.6,2636.1,-2493.7,-619.2
-1176.7,-5297.4,-2334.4,-4465,-1797.5,2633.5,-2495.7,-624.1
-1162.5,-5287.3,-2327.5,-4455.6,-1788.6,2648,-2469.3,-614.2
-1138.9,-5271.3,-2307.8,-4434.3,-1766.6,2674.8,-2450.1,-590.1
-1120.5,-5254.1,-2288.9,-4414.2,-1752.5,2692.4,-2432,-573.9
-1116.2,-5245,-2282.4,-4409.4,-1750.1,2698,-2424.1,-569.8
-1121.7,-5248.3,-2284.5,-4412.9,-1755.8,2691,-2427.7,-573.9
-1143.7,-5265,-2301.4,-4431.6,-1781.5,2664.8,-2448.8,-599.5
-1162,-5282.8,-2323.3,-4453.8,-1802.1,2651,-2469.8,-619.8
-1167,-5296.6,-2337.7,-4465.9,-1807.4,2643.8,-2489.5,-623.6
-1168.7,-5307.5,-2341.6,-4468.6,-1813.3,2625.6,-2490.9,-630.5
-1162.6,-5290.6,-2321.8,-4451.5,-1792.6,2642.9,-2471.2,-611.9
-1143.9,-5266,-2296.1,-4427.1,-1761.2,2649.2,-2444.3,-588
-1132.2,-5253.1,-2279.5,-4415.9,-1750.9,2657.4,-2428.8,-578.1
-1129.8,-5247.1,-2274.3,-4413.8,-1751.2,2657.9,-2423.1,-577.1
-1141.5,-5250.7,-2287.9,-4424.8,-1762.5,2646.8,-2435.7,-586
-1160.8,-5267.4,-2311.7,-4448.7,-1786.6,2628.9,-2455.4,-608.7
-1174.1,-5286.6,-2333,-4467.5,-1802.7,2620.4,-2472.9,-624
-1178.7,-5303.5,-2344.4,-4475.8,-1809.8,2617.6,-2484.2,-631.1
-1168.7,-5297.6,-2342,-4468.6,-1801,2629.9,-2476.4,-622.6
-1147.3,-5280.3,-2322.7,-4448,-1779.7,2653.9,-2457.1,-600.2
-1126.4,-5259.3,-2299,-4427.8,-1761.6,2673.8,-2434.3,-580.3
-1125.6,-5240.7,-2278.4,-4412.9,-1750.2,2683,-2416.6,-569.4
-1128.7,-5239.8,-2272.1,-4408.3,-1741.8,2680.4,-2435.1,-568.7
-1147.3,-5257.7,-2290.5,-4428.5,-1763.7,2659.7,-2455.4,-590.2
-1168.8,-5279.6,-2319,-4452.7,-1788.5,2642.4,-2461.9,-614.2
-1182.8,-5298.5,-2341.1,-4469.6,-1803,2635.4,-2482.2,-628.1
-1183.1,-5303.1,-2350,-4472.6,-1805.2,2639.6,-2485.8,-628.3
-1166.7,-5290.5,-2338.2,-4457,-1793,2654.7,-2473.1,-616.2
-1143.5,-5270.8,-2315.1,-4434.3,-1770.4,2679.8,-2452.5,-592.9
-1121.6,-5249.5,-2291,-4413.6,-1752.9,2698.5,-2428.7,-572.9
-1112.9,-5240.2,-2274.6,-4403.6,-1749.3,2700.2,-2419.1,-568.6
-1122.3,-5251.9,-2286.7,-4413.7,-1759.9,2690.5,-2434,-577.1
-1137.6,-5269.9,-2310.4,-4436.4,-1780.4,2665.5,-2458.3,-594.9
-1156.4,-5291.5,-2328.7,-4458,-1798.5,2634.6,-2473,-614.4
-1176.2,-5299.9,-2340.3,-4467.6,-1797.1,2614.6,-2481.2,-621.5
-1173.7,-5296.6,-2334.4,-4463.1,-1793.9,2617.3,-2476.4,-618.9
-1154.1,-5276.2,-2313.2,-4448,-1776.7,2636.7,-2455,-602
-1133.1,-5245.9,-2290.7,-4426.7,-1755.9,2660.7,-2431,-580
-1117.3,-5227.9,-2273.4,-4408.7,-1743.2,2675.5,-2414.1,-565.7
-1114.6,-5228.1,-2267.7,-4403.7,-1743.7,2674.1,-2410.8,-565.2
-1128.7,-5254.4,-2284.6,-4418.6,-1759.4,2661,-2430.3,-579.4
-1151,-5287.8,-2313.5,-4446.3,-1790.2,2632.4,-2464.6,-611.5
-1171.7,-5309.8,-2337.1,-4470.9,-1810,2618.7,-2486.8,-630.7
-1178.3,-5313.5,-2343.8,-4479.7,-1815.2,2617.4,-2489.6,-635.3
-1168.8,-5301.7,-2337.9,-4469.8,-1806,2628.6,-2476.4,-625.3
-1158.6,-5279.2,-2318,-4449.4,-1781.2,2653.7,-2455,-600.6
-1135.8,-5251.3,-2287.5,-4423.9,-1748.3,2678.9,-2445.6,-575.6
-1122.5,-5238.5,-2270.9,-4409.7,-1740.6,2687.1,-2430.2,-567.7
-1126.1,-5248.2,-2282,-4417.4,-1747.8,2686.1,-2426.9,-572
-1143.5,-5269.8,-2302.9,-4436.2,-1771.3,2666.3,-2449.8,-592.6
-1167.2,-5294.4,-2329,-4459.4,-1798.9,2642.4,-2475.2,-619
-1180.6,-5308.7,-2346.3,-4472.5,-1811.9,2635.7,-2490.9,-631.3
-1182.6,-5305.7,-2344.9,-4472.3,-1813.9,2635.5,-2488.8,-632.6
-1164.6,-5287.5,-2329.4,-4455.3,-1795.3,2656.5,-2470.6,-613.6
-1137.1,-5265,-2307.5,-4431.1,-1770.3,2686.5,-2447.7,-586.5
-1116.7,-5250.5,-2290.4,-4414.8,-1756.9,2703.9,-2416.8,-569.5
-1111,-5241.1,-2281.3,-4408.2,-1750.2,2700.2,-2418.5,-561.5
-1132.2,-5251.9,-2292.9,-4420.2,-1757.8,2676.6,-2432.7,-571.5
-1153.1,-5271.5,-2309,-4441,-1773.6,2636.8,-2450.8,-595.1
-1175.7,-5293.4,-2328.9,-4463.9,-1797.3,2615.7,-2473.4,-619.7
-1184.8,-5303.6,-2338.8,-4473.5,-1805,2609.9,-2485.2,-627.6
-1178.5,-5288.3,-2329.2,-4465.2,-1797.7,2617.5,-2474.6,-620.5
-1155.8,-5269.8,-2312.5,-4447.4,-1775.9,2644.8,-2454.4,-597.8
-1129.7,-5254.1,-2290,-4424.2,-1752.7,2671.5,-2432.3,-573.7
-1112,-5241.1,-2269.6,-4406.9,-1740.6,2684.3,-2415,-560.9
-1112.2,-5241.9,-2275.9,-4411.1,-1745.6,2684,-2416.9,-564.9
-1125,-5256,-2294.1,-4429.1,-1763,2669.7,-2431.7,-580.7
-1150.1,-5279.2,-2319.2,-4451.6,-1788.4,2645.5,-2455.1,-605.3
-1178.8,-5298.4,-2336,-4469.2,-1801.2,2630.3,-2477.4,-622
-1180.8,-5301.4,-2332,-4468.2,-1794.6,2628,-2499.5,-622.3
-1167.5,-5285.7,-2314.8,-4452.4,-1781.5,2642.5,-2487.2,-609.7
-1145.4,-5269.1,-2301.8,-4432.8,-1761,2669.9,-2455.9,-588
-1124.5,-5249.7,-2283.1,-4414.3,-1744.3,2693.5,-2424,-568.8
-1117.5,-5248.8,-2283.7,-4411.3,-1747.1,2696.8,-2423.8,-569.7
-1127.5,-5258.2,-2296.1,-4420.7,-1757.1,2690.7,-2433.8,-577.3
-1148.5,-5278.3,-2315.9,-4439.7,-1777.7,2671.5,-2454.2,-596.1
-1169.7,-5300.3,-2338.7,-4463.9,-1804,2647.8,-2477.7,-622.1
-1182.6,-5315.6,-2352.6,-4477.5,-1816.8,2638.8,-2496.4,-634.4
-1178.8,-5307.8,-2342.8,-4473.4,-1813,2642.5,-2492.7,-629
-1158,-5289.1,-2320.4,-4455.3,-1795.4,2644.7,-2471.6,-612.4
-1134.1,-5264.2,-2292.6,-4428.3,-1769.1,2656.9,-2442.6,-586.9
-1123.4,-5245.6,-2268.4,-4409.7,-1748.5,2664.7,-2423.2,-569.3
-1121.9,-5245.3,-2273.6,-4411.5,-1743.1,2668.6,-2420.9,-568.6
-1132.4,-5254.9,-2288.2,-4424.6,-1755.4,2659,-2435.3,-579.5
-1153.9,-5268.8,-2308.2,-4449.5,-1781.5,2632.5,-2458.6,-605.1
-1176.7,-5284.6,-2326.7,-4469.6,-1801.9,2614.8,-2475.8,-625.2
-1181.9,-5300.1,-2332,-4472.2,-1805.2,2615,-2484.2,-628.8
-1174.5,-5293.6,-2320.9,-4462.4,-1800.3,2619.8,-2474.1,-624.9
-1153.5,-5273.5,-2303,-4442.1,-1781.4,2640.8,-2453.6,-606.6
-1127.4,-5251.3,-2284.6,-4421.1,-1758,2670.6,-2432.5,-581.8
-1118.8,-5238,-2272.7,-4410.7,-1749.7,2683.1,-2418.9,-571.1
-1127.5,-5242.9,-2281.3,-4413.4,-1752.9,2682.3,-2427.6,-571.6
-1139,-5258.9,-2295.9,-4426.5,-1758.3,2671.6,-2458.6,-581.7
-1162,-5282.5,-2315.5,-4448.2,-1775.7,2649.3,-2478.1,-604.9
-1185.2,-5306.6,-2338.1,-4470.3,-1797.1,2633.2,-2480.7,-626.2
-1183.1,-5307.6,-2342.5,-4473.5,-1795.9,2641,-2472.8,-624.1
-1167.7,-5292.7,-2328,-4458,-1788.7,2649.9,-2463.6,-616
-1142.7,-5268.9,-2307.1,-4432.6,-1769,2672.7,-2446.2,-595.4
-1116.9,-5245.5,-2289.4,-4412,-1751.7,2696.7,-2427.7,-575.6
-1109.8,-5234,-2276.5,-4401.9,-1748.8,2700.9,-2420.5,-571.2
-1119.5,-5242.8,-2290.5,-4411.3,-1758,2696.4,-2434.8,-578
-1137.2,-5255.8,-2307.9,-4430.8,-1776,2678.6,-2456.4,-592.2
-1159.6,-5271.9,-2324.1,-4449.3,-1799.9,2637.9,-2474.2,-615.7
-1176.8,-5279.1,-2333.7,-4461,-1810.5,2615.8,-2482.2,-625.9
-1181.2,-5275.8,-2325.6,-4458.3,-1799.5,2616.1,-2475.9,-621.6
-1168.9,-5272.5,-2322,-4447.6,-1788.1,2623.7,-2470.7,-615.5
-1146.6,-5245.1,-2302.6,-4426.7,-1767,2648.6,-2450.1,-592.7
-1130.3,-5221.6,-2284.8,-4410.2,-1752.6,2666,-2433.6,-576.6
-1132.4,-5217.4,-2283.7,-4410.1,-1757.4,2662.6,-2435.1,-580.6
-1143.3,-5234,-2296.1,-4424,-1768.9,2654.8,-2445.5,-590.1
-1162.4,-5253.9,-2314.3,-4445,-1789.7,2636,-2460.8,-609
-1180.1,-5275.5,-2337.4,-4464.6,-1809.7,2621.9,-2484,-627.9
-1180.4,-5276.8,-2349.4,-4470,-1813.5,2625.4,-2489.7,-631.1
-1179.6,-5265.5,-2339.8,-4460.9,-1809.5,2630,-2480.8,-627.6
-1166.3,-5250.4,-2321.3,-4442.4,-1782.1,2650.1,-2472.2,-607.4
-1143.4,-5228.9,-2297.2,-4417.2,-1753.9,2678.3,-2462.3,-581.5
-1133.6,-5222.6,-2285.4,-4403.7,-1746.6,2687.5,-2435.5,-572.3
-1139.5,-5221.8,-2285.6,-4409.5,-1753.6,2684.5,-2429.5,-576.9
-1150.1,-5238.3,-2303.2,-4423.4,-1767.6,2674.5,-2446.6,-588.2
-1170.8,-5260.7,-2329.4,-4446.1,-1793.2,2654.2,-2470.6,-612.3
-1184.4,-5276.9,-2349.9,-4464.4,-1809.3,2646.2,-2488.6,-627.3
-1182.4,-5279.4,-2355.1,-4465.7,-1811,2649.8,-2493.5,-627.5
-1175.2,-5270.7,-2343.7,-4454.4,-1805.4,2654.7,-2475.4,-621.1
-1153.7,-5250.7,-2318.9,-4431.8,-1783.2,2671.2,-2451.6,-599.3
-1128.8,-5226.2,-2287.4,-4405.6,-1759.2,2676.4,-2435.4,-576.3
-1129.9,-5214.2,-2270,-4393.9,-1742.7,2666.6,-2424.4,-567.3
-1141.2,-5223.8,-2278.9,-4404.6,-1747.3,2661.1,-2434.9,-571.9
-1158.8,-5239.9,-2304.4,-4426.1,-1768.4,2644,-2451.2,-591.2
-1181.3,-5254.3,-2328.1,-4450.1,-1793.8,2620.7,-2473.7,-616.3
-1189.5,-5263.5,-2340,-4462.3,-1803.5,2617.4,-2485.5,-624.9
-1183.7,-5262.3,-2336,-4458.9,-1801,2621.6,-2480.8,-622.1
-1168.2,-5254.1,-2319.3,-4441.7,-1788.6,2635.8,-2464.5,-610.5
-1145.2,-5230.7,-2291.6,-4419,-1767,2657.5,-2439.8,-589.8
-1126.2,-5212.2,-2270.3,-4400.5,-1750.6,2675.3,-2419.9,-572
-1124.2,-5214.8,-2273.1,-4400,-1751.3,2678.1,-2423.8,-570.9
-1142.5,-5224.8,-2288.2,-4409,-1759.7,2672.5,-2434.4,-578.1
-1162.6,-5245.6,-2314.4,-4429.6,-1782.6,2651.3,-2471.9,-598.6
-1183.1,-5274.6,-2343.4,-4455.6,-1801.2,2628.8,-2511.5,-626.6
-1191.8,-5279.3,-2352.8,-4463.3,-1805.4,2628.7,-2509.5,-631.6
-1190.5,-5273.2,-2349.4,-4460.1,-1803.6,2635.4,-2483.3,-627.7
-1172.3,-5254,-2329.7,-4443.4,-1787.6,2654.2,-2461.9,-611.1
-1148.5,-5233.6,-2307.2,-4422.3,-1765.5,2679.7,-2440.9,-588.4
-1135,-5224.6,-2295.6,-4409.5,-1754.2,2695.5,-2429,-574.2
-1134.9,-5231.3,-2296.7,-4412.8,-1758.1,2694.4,-2433.5,-577.1
-1145.8,-5248.4,-2312.5,-4427.3,-1772.8,2683.2,-2452.2,-588.9
-1166.9,-5274.8,-2338.5,-4453.1,-1799.3,2659.7,-2467.5,-613.2
-1181.7,-5287.3,-2348.4,-4467.7,-1815.8,2635.4,-2487.9,-629.9
-1181.4,-5282.3,-2346.6,-4465.9,-1810.9,2624.2,-2488.7,-626.9
-1182.1,-5265.1,-2333.9,-4452.4,-1791.1,2618.7,-2469.2,-616.2
-1162.8,-5238.8,-2304.6,-4428.3,-1767.5,2640.8,-2441,-593.5
-1140.4,-5219.2,-2286.1,-4407.5,-1747.9,2667.3,-2422.6,-571.5
-1135,-5210.5,-2285.6,-4404.6,-1747.9,2671.5,-2423,-569.8
-1140.1,-5219,-2294.5,-4410.9,-1754.4,2667.5,-2432.1,-575.3
-1158.6,-5244.7,-2317.7,-4429.8,-1774.3,2651.1,-2456.3,-593.5
-1180.9,-5271.6,-2334.3,-4450.2,-1798.8,2625.2,-2477.2,-618.6
-1189.2,-5280.5,-2340.1,-4460.1,-1808.7,2618.1,-2486.7,-628.8
-1181.1,-5275.8,-2337.6,-4458.3,-1804.8,2626.6,-2482,-623.8
-1166.3,-5255.9,-2318.6,-4441.7,-1790.4,2641.8,-2462.6,-609.7
-1150.8,-5229.3,-2298,-4417.3,-1765.5,2670.1,-2436.4,-583.4
-1132.5,-5214.4,-2288.6,-4404.9,-1750.1,2690.2,-2441.4,-565.5
-1132.9,-5215.5,-2289.7,-4407.9,-1745.2,2690.7,-2439,-568.5
-1142.2,-5235.4,-2303.9,-4415.8,-1755.1,2682.1,-2445.3,-577.5
-1162.9,-5258.1,-2324.4,-4437.1,-1779.9,2659.2,-2466.3,-600.8
-1180.4,-5272.4,-2339.1,-4453.1,-1802.1,2638.9,-2479,-623.3
-1183.3,-5271.9,-2345.8,-4458,-1804.8,2644.5,-2479.3,-624.9
-1175.3,-5265.4,-2342.9,-4453.6,-1796,2657.8,-2470.9,-615.6
-1158.5,-5241.9,-2323.5,-4434.8,-1778,2677.7,-2445.6,-597.6
-1138.1,-5226.4,-2309.7,-4417,-1756.5,2706.5,-2427.6,-572.8
-1129.3,-5224.1,-2307.4,-4412.8,-1752.6,2701.5,-2409.8,-566
-1132.1,-5235.1,-2306,-4416.1,-1757.9,2676,-2433.9,-575.6
-1155.9,-5250,-2313.2,-4427.6,-1765.2,2645.3,-2452.1,-589.3
-1178,-5269.9,-2329.4,-4446.3,-1788.1,2620.1,-2472.3,-612
-1192.9,-5280.7,-2340.4,-4460.2,-1803.9,2606.4,-2485.3,-627.7
-1195.4,-5270.5,-2342.1,-4465.7,-1806,2611.1,-2484,-628.6
-1182,-5251.9,-2329.2,-4452.2,-1793.5,2626.5,-2465.5,-615
-1157.8,-5232.3,-2312.8,-4432.5,-1772.8,2652,-2443.7,-593.7
-1137.5,-5224.3,-2301.6,-4418.1,-1755.6,2675.8,-2429.4,-574.4
-1128.8,-5229.6,-2297.2,-4413.4,-1753.8,2680.3,-2430.4,-571.6
-1134.9,-5241.3,-2304.9,-4419.4,-1762,2672.3,-2441.9,-579.7
-1155.1,-5258.9,-2322.2,-4433.5,-1779.2,2654.6,-2458.9,-596.1
-1182.8,-5273.6,-2332.8,-4451.1,-1800.4,2632.3,-2477.4,-616.6
-1190.8,-5270.4,-2333.6,-4457.5,-1801.3,2629.7,-2494,-621.7
-1187.1,-5263,-2332.1,-4453.2,-1790.4,2639.3,-2490.8,-616.2
-1173.1,-5249.3,-2322.8,-4438.1,-1780,2653.4,-2461.7,-605.8
-1150.3,-5234.4,-2310.3,-4420,-1761.3,2678.7,-2436.4,-585.9
-1136.6,-5233.3,-2303.9,-4409.7,-1751.6,2693.6,-2434,-574.6
-1135.6,-5236.5,-2302.7,-4411,-1754.5,2694.4,-2435.5,-575.9
-1146,-5249.6,-2311.2,-4419.8,-1765.3,2685.6,-2449.4,-585.2
-1164,-5268.1,-2327.9,-4437.1,-1785.6,2665.8,-2469.9,-604.6
-1176.9,-5275.1,-2339.5,-4448.9,-1800.3,2652.5,-2478.4,-618.5
-1178.7,-5274.4,-2342,-4453.5,-1803.3,2652.1,-2482.8,-621
-1167.3,-5261.6,-2330.5,-4446,-1795.9,2645,-2469.2,-613.3
-1157.3,-5244.3,-2310.8,-4426,-1774.1,2642.4,-2450.4,-598
-1146.5,-5227.6,-2293,-4408.2,-1749.2,2658.5,-2432.1,-577.6
-1135.7,-5218.9,-2292.2,-4405.3,-1744.4,2671.2,-2427.1,-569.2
-1135.9,-5214.3,-2289.4,-4406.8,-1751.5,2665.1,-2431,-575.6
-1147.1,-5232.8,-2304.2,-4422.9,-1765.6,2651.5,-2451,-588.8
-1163.1,-5247.3,-2323.5,-4442.5,-1785.3,2636.1,-2464.3,-606.3
-1173.2,-5260.1,-2330.8,-4450.5,-1794.1,2631.4,-2469.9,-615.3
-1176.4,-5264.8,-2328.9,-4452.4,-1794.4,2632.2,-2472.9,-616.3
-1164.3,-5251.3,-2316.4,-4440.7,-1788,2641.7,-2461.5,-610.2
-1147.7,-5244.2,-2306.6,-4427.4,-1780.2,2649.4,-2454.6,-604.7
-1140,-5233.2,-2299.8,-4414.9,-1767.3,2664.7,-2440.6,-590.2
-1141.7,-5231.1,-2297.7,-4411.9,-1757.3,2671.6,-2442.8,-584.1
-1146.9,-5238.1,-2301,-4415.6,-1759.7,2666.8,-2466.5,-589.7
-1163.8,-5256.6,-2323.2,-4433.7,-1775.9,2654.4,-2468.5,-604.5
-1175.7,-5266.1,-2340.9,-4450.6,-1790.9,2646.4,-2472.1,-616.1
-1182,-5275,-2347.6,-4458,-1799.7,2643.3,-2478.9,-623.6
-1175.1,-5272.9,-2341.8,-4451,-1794.9,2650.4,-2473,-619.4
-1163,-5264.2,-2327.7,-4439.9,-1786.1,2658.7,-2459.4,-612.1
-1148.4,-5254.9,-2308.5,-4424.1,-1770.1,2673.7,-2444.5,-597.1
-1137.5,-5247.7,-2298.2,-4415.2,-1758.6,2690.6,-2434,-582.6
-1137.6,-5247,-2300.3,-4417.7,-1761,2693.3,-2430.7,-580.7
-1145.4,-5250.8,-2309.4,-4425.1,-1770.1,2684.8,-2433.8,-587.5
-1161.8,-5255.3,-2323.1,-4434.7,-1783.1,2659.1,-2460.3,-598.5
-1175.9,-5257.4,-2334,-4444.5,-1790,2630.3,-2469.2,-612.5
-1178.7,-5255.4,-2334.2,-4446.8,-1793.8,2618.9,-2475.5,-619.6
-1173.7,-5240.3,-2326.6,-4440.8,-1793.1,2620.9,-2474.4,-618.1
-1164.3,-5221.6,-2311.6,-4427.3,-1784.6,2628.4,-2461.9,-610.3
-1151.5,-5212.4,-2298.2,-4412.5,-1768.6,2646.4,-2448.3,-593.8
-1144.9,-5211.2,-2296.5,-4405.1,-1757.8,2662.9,-2440.5,-581.1
-1146.5,-5217.4,-2300.7,-4407,-1758,2667.3,-2438.6,-579.7
-1153.5,-5227.4,-2314.2,-4417.8,-1768.3,2661.7,-2452.5,-588.3
-1163.9,-5240.2,-2328.9,-4432.9,-1784.8,2648.9,-2467.2,-603.2
-1174.4,-5249,-2337.6,-4443.5,-1797.7,2635.9,-2475.2,-616.7
-1181.9,-5247.1,-2336,-4442.8,-1796.7,2637.8,-2483.3,-615.4
-1176.6,-5232.3,-2322.1,-4432.2,-1782.3,2643.5,-2484.2,-610.5
-1162.8,-5215.1,-2307.3,-4413.8,-1768.4,2655,-2469.4,-599.9
-1151.9,-5209.6,-2304,-4403.3,-1756.9,2671.7,-2447,-587.1
-1144.5,-5205.2,-2303.5,-4400.4,-1752.6,2683.2,-2438.6,-579.2
-1149,-5209.4,-2312.8,-4406.4,-1759.1,2684.3,-2445.8,-582.7
-1159.6,-5223,-2325.7,-4415.8,-1771.9,2675.4,-2460.5,-593.7
-1171.4,-5232.8,-2334.9,-4429.5,-1790.3,2659.1,-2470,-611.2
-1182.9,-5251.7,-2350.5,-4444.3,-1807.9,2646.2,-2487.6,-628.7
-1183.4,-5252.2,-2348.7,-4445.2,-1806.8,2649.6,-2486,-626.5
-1174.5,-5239.1,-2334.2,-4434.4,-1798.9,2657.5,-2478.2,-617.3
-1161,-5229.5,-2322.4,-4422.6,-1785.4,2666.7,-2461.4,-603.9
-1147.6,-5218.4,-2308.2,-4411.4,-1770,2667.7,-2450.5,-588.3
-1154.7,-5211,-2305.1,-4407.8,-1756.9,2657.3,-2442.8,-582
-1163.8,-5219,-2311.4,-4413.3,-1761.3,2650.8,-2451.2,-586.9
-1173.6,-5223.7,-2322.2,-4424.6,-1776.1,2637.9,-2465.3,-599.8
-1185.8,-5232,-2334.8,-4439.6,-1793.7,2623.4,-2476.6,-616.4
-1191,-5235.6,-2339.5,-4445.8,-1800.2,2620.5,-2478.7,-623.3
-1184.8,-5230.2,-2333.3,-4440.5,-1797.9,2625,-2472.1,-620.3
-1170.8,-5223.3,-2323,-4430.9,-1788.5,2637.4,-2458.8,-610.7
-1156.5,-5210.7,-2310.1,-4418.3,-1773.2,2656.5,-2444.5,-594.1
-1145.1,-5205.6,-2299.8,-4405.9,-1763.1,2670.4,-2437.8,-581.9
-1145.4,-5210.4,-2307.7,-4407.3,-1767.2,2670.8,-2444.1,-584.8
-1160.6,-5218.1,-2314.8,-4411.2,-1772.2,2663.8,-2453.6,-591.3
-1174.3,-5228.6,-2325.3,-4422.1,-1778.4,2647.9,-2483.5,-605.2
-1185.7,-5238.2,-2339.5,-4435.4,-1792.3,2636.5,-2496,-619.3
-1187.3,-5242.3,-2343.3,-4441,-1794.3,2640.3,-2479.4,-620.1
-1180.9,-5232.2,-2336.2,-4437,-1790.3,2649.3,-2467.7,-615.1
-1168.4,-5217.4,-2329,-4424.9,-1779.5,2665.9,-2454.2,-603.4
-1152.4,-5208.7,-2315,-4407,-1765.4,2683.9,-2444.3,-588.2
-1145,-5207.1,-2308.1,-4401.1,-1762.6,2690.7,-2442.6,-583.6
-1145.9,-5214.1,-2312.1,-4406.8,-1768.4,2688.9,-2449.2,-587.6
-1151.1,-5224.9,-2316.2,-4411.5,-1775.6,2679.7,-2460.2,-594.1
-1162.6,-5236.1,-2328.8,-4426,-1790.8,2655.3,-2476.4,-607
-1170.1,-5240,-2334.3,-4434.8,-1800.8,2633.5,-2475.2,-616.4
-1176.9,-5231.7,-2329.8,-4433.2,-1794.8,2624.8,-2465.1,-611.5
-1170.5,-5216.9,-2330,-4429,-1780,2635.9,-2448.4,-602.8
-1160,-5200.9,-2322.4,-4419.7,-1769.2,2651.3,-2440.5,-591.4
-1147.8,-5193.5,-2310.3,-4407.8,-1756.8,2666.3,-2436,-577.7
-1143.7,-5195.8,-2307.8,-4405.8,-1757.8,2667.3,-2439.9,-578.5
-1149.6,-5219,-2316,-4413,-1769.5,2656.2,-2459.4,-591.1
-1160.2,-5236.5,-2323.1,-4424.8,-1781.2,2644.2,-2469,-602.1
-1173.7,-5244.3,-2334.4,-4439.3,-1797.5,2630.2,-2475.9,-617.2
-1178.6,-5246.6,-2342.2,-4445.5,-1804.1,2629.9,-2477.8,-622.8
-1177.1,-5238.4,-2345.2,-4443.5,-1801.1,2638.5,-2469.8,-618.7
-1181.2,-5224.2,-2335.9,-4435.1,-1789.3,2649,-2456,-609.2
-1164.4,-5215.1,-2321.1,-4418.9,-1766.2,2666.9,-2467.8,-592.9
-1151.6,-5211.8,-2310.5,-4408.4,-1758.5,2677.6,-2458.7,-584.2
-1152.6,-5218.4,-2314,-4411.8,-1763.5,2676,-2454.1,-587.2
-1157.3,-5225.5,-2318.1,-4415.9,-1768.9,2672.8,-2462,-591.1
-1170.1,-5231.7,-2328,-4425.6,-1784.3,2659.1,-2468.8,-605.4
-1181.5,-5238.4,-2339.4,-4437.3,-1799.8,2647.7,-2475.7,-620.1
-1182,-5234.3,-2341.1,-4441,-1798.5,2655.4,-2469.2,-617.5
-1175.3,-5226,-2337.8,-4434,-1793.3,2665.7,-2461.5,-610.5
-1165.3,-5220.2,-2333.8,-4426.7,-1787.7,2674.3,-2463,-603.4
-1147,-5211.8,-2318.2,-4411.5,-1772,2677.5,-2456,-586
-1143.5,-5211,-2308.3,-4403.6,-1767.9,2667.1,-2452.6,-581
-1156.8,-5210.9,-2300.6,-4403.8,-1766.6,2651.9,-2454.1,-583.1
-1161.9,-5215.9,-2307.3,-4408.9,-1766.5,2646.1,-2459.9,-589.5
-1172.3,-5220.5,-2317.7,-4421.4,-1782.8,2629.7,-2467.3,-605.7
-1178.4,-5216,-2328.1,-4431.9,-1792.8,2624.9,-2469,-614.7
-1172,-5213.8,-2329.2,-4431.9,-1790.4,2632.2,-2465.6,-611.7
-1167.5,-5218.7,-2324.8,-4427.2,-1788.1,2635.1,-2462.8,-609.9
-1158.5,-5215.2,-2316.8,-4416.1,-1777.7,2647.2,-2453.3,-599.8
-1147.1,-5209.7,-2308.2,-4406.8,-1765.7,2663.7,-2447.4,-587
-1142.2,-5209.4,-2304.6,-4406.2,-1764.7,2668.2,-2446.7,-584.2
-1148.1,-5211.5,-2308.7,-4410.9,-1767,2669.8,-2448.7,-585.2
-1159.9,-5212.1,-2315.6,-4414,-1773.5,2664.2,-2454.4,-589.4
-1169.3,-5216.8,-2324.2,-4424.9,-1781.2,2653,-2477.1,-601.3
-1175.6,-5221.4,-2331.5,-4431,-1782.4,2651.8,-2466.8,-608.4
-1175.8,-5220.5,-2330.7,-4427.5,-1784.8,2652.9,-2460.1,-609.4
-1173.7,-5219.3,-2327,-4422.9,-1785.4,2655,-2459.9,-609.7
-1162.3,-5223.6,-2326.7,-4415.7,-1780.1,2666.1,-2464.1,-604.6
-1153.4,-5224.2,-2321.8,-4410.8,-1772.4,2679,-2462.1,-594.7
-1150.9,-5224.2,-2320.3,-4413.7,-1773.5,2683.1,-2461.5,-593.4
-1150.9,-5225.5,-2323.7,-4417,-1775.6,2685.7,-2465.2,-593.7
-1159.2,-5230.6,-2327.2,-4424.3,-1786.9,2671.3,-2478,-602.4
-1168.4,-5229.3,-2330.4,-4431.1,-1797.3,2643.7,-2474.4,-610.9
-1176.1,-5226,-2328.3,-4430.9,-1797.5,2627.6,-2467.2,-612.2
-1183.8,-5224.6,-2317.9,-4428,-1790.6,2618,-2464.7,-613.5
-1177.6,-5221.1,-2318.1,-4424.9,-1782.7,2624.5,-2461.5,-609.8
-1165.4,-5211.8,-2314.5,-4416.7,-1771.1,2642.1,-2455.9,-596.4
-1158.5,-5204.2,-2312,-4412.1,-1765,2654.6,-2452.8,-586.9
-1159.2,-5204.7,-2318.5,-4416.6,-1766.2,2660.7,-2453.5,-585.5
-1158.4,-5203.3,-2317.3,-4416.1,-1766.7,2662.3,-2450.5,-584.5
-1164.1,-5215.9,-2320.4,-4420.8,-1778.4,2649.9,-2455.7,-595.6
-1171.1,-5225,-2323.2,-4429.6,-1790.8,2639.2,-2461.3,-608.2
-1171.4,-5228.3,-2320.8,-4431.8,-1794.4,2635.9,-2464.9,-612.9
-1169.6,-5230.4,-2321.8,-4431.6,-1797.5,2632.4,-2468.3,-617.2
-1168.1,-5227.6,-2322.4,-4425.3,-1787.5,2647,-2460.3,-605
-1164.3,-5226.3,-2315.3,-4416.6,-1765.9,2665.9,-2459.6,-589.6
-1158.5,-5221.4,-2313.8,-4409.7,-1755.9,2678.5,-2466.4,-581
-1156.5,-5217.9,-2319.2,-4407.9,-1755.1,2685.6,-2445.6,-578.7
-1157,-5216.4,-2320.9,-4411,-1761.9,2680.9,-2445,-584.2
-1168.3,-5222.9,-2329.6,-4420.7,-1779.5,2664.7,-2455.8,-600.7
-1174.9,-5224.1,-2329.7,-4422.1,-1788.7,2657,-2461.7,-609.9
-1178.7,-5225.9,-2331.3,-4425.5,-1794.7,2653.1,-2468.2,-615.9
-1174.8,-5222.9,-2330.7,-4423.6,-1794.2,2655.7,-2469.1,-615.6
-1163.8,-5214.9,-2327.1,-4414.8,-1782.7,2672.7,-2463.9,-603.3
-1153.5,-5210.3,-2325,-4409.3,-1771.5,2686.1,-2464.7,-588.2
-1147.1,-5205.7,-2321.5,-4407.2,-1765.4,2679.7,-2449.1,-579
-1151.2,-5194.5,-2308.2,-4399.1,-1759.5,2667.5,-2435.6,-573.1
-1167.7,-5197.2,-2307.1,-4402.4,-1763.5,2648.5,-2443.5,-585.1
-1178.9,-5202.3,-2317.2,-4410.5,-1777.3,2631.4,-2452.7,-601.9
-1188.4,-5210.5,-2332.7,-4423.4,-1793.9,2619.6,-2470.8,-618.3
-1193.3,-5210,-2342.3,-4430.2,-1800.4,2618.2,-2478.5,-622.5
-1188.9,-5203,-2339.4,-4425.6,-1796.1,2624.6,-2475.6,-618.6
-1178.1,-5198,-2333.3,-4417,-1784.2,2641.7,-2471.1,-605.7
-1168.6,-5200.2,-2324.3,-4410.9,-1775.4,2655.1,-2464.5,-595
-1162.2,-5189.6,-2313.7,-4404.6,-1768.8,2662.8,-2452.3,-587.9
-1160.1,-5188.3,-2313.7,-4404.2,-1770.2,2662.6,-2453.4,-589
-1165.6,-5192.2,-2319.1,-4410,-1782.1,2650.5,-2458.7,-600.6
-1185.4,-5200.9,-2328.5,-4418.5,-1796,2638.3,-2467.8,-614.4
-1194.9,-5209.1,-2335.8,-4425.4,-1793,2638,-2487.1,-617.6
-1198,-5212.3,-2338,-4426.7,-1793.9,2637.3,-2496.7,-619.9
-1193.6,-5209.1,-2338.5,-4423,-1787.9,2646,-2473.1,-614.1
-1181.4,-5199.6,-2331,-4412.4,-1774.1,2666.8,-2461.3,-597
-1169.8,-5192.7,-2319.7,-4398.9,-1767.4,2677.8,-2453.7,-587.9
-1162.9,-5189.3,-2317.1,-4391.1,-1764,2685.1,-2451,-583
-1165,-5191.3,-2322.4,-4394.1,-1768.4,2684.1,-2454.6,-585
-1175,-5198.1,-2330.6,-4404.6,-1784.8,2668.2,-2465.2,-600.8
-1185.4,-5206.5,-2342.1,-4418.9,-1798.5,2659.6,-2475.1,-614.3
-1188.4,-5211,-2348.8,-4426.4,-1803.5,2652.2,-2486.5,-617.3
-1187.6,-5210.9,-2342.5,-4424.5,-1804.5,2633.4,-2476.9,-618.1
-1185.3,-5198.2,-2326.8,-4410.8,-1786.8,2632.3,-2462.9,-601.8
-1175,-5189.1,-2316.1,-4399.3,-1764.6,2645.9,-2454,-587.9
-1164.8,-5182.9,-2303.9,-4390.2,-1757.9,2652.3,-2447.5,-581.9
-1160.5,-5181.3,-2302.4,-4388.3,-1755.6,2659.1,-2446,-577.6
-1167.5,-5180.2,-2309.1,-4397,-1765.2,2651.8,-2450.9,-586.1
-1179.8,-5186.3,-2320,-4411.2,-1781.8,2637.7,-2458.5,-602.6
-1188.3,-5195.3,-2331.6,-4424.1,-1791.3,2635.4,-2465,-611.4
-1191.7,-5207.3,-2337.7,-4430,-1797.7,2632.2,-2469,-617
-1185.6,-5205.6,-2334.5,-4424.9,-1792.9,2636.9,-2465.1,-612.7
-1172.7,-5195.9,-2325.9,-4414,-1779.9,2653.4,-2455.9,-600
-1159.6,-5189,-2317.9,-4400.8,-1767.8,2668.8,-2450.3,-586.5
-1159.6,-5177.3,-2305.2,-4390.2,-1758.5,2677.5,-2454.8,-578.4
-1164.1,-5187.8,-2312.9,-4395,-1756.9,2672.6,-2472.4,-583.8
-1177.3,-5196.9,-2322.7,-4405.5,-1770.4,2659.8,-2473.4,-596
-1193.1,-5207.7,-2339.6,-4423.5,-1788,2648.8,-2466,-612.2
-1200.4,-5218.1,-2355.3,-4438.2,-1799,2648.4,-2475.4,-620.4
-1202.5,-5221.4,-2356.9,-4439.9,-1804,2646.8,-2481.1,-624.9
-1194.2,-5215.7,-2345.8,-4428.7,-1796.3,2653.9,-2474.6,-617.8
-1180.3,-5208.9,-2336.2,-4413.1,-1780.9,2671.1,-2467.3,-602.5
-1166,-5199,-2323.8,-4397.9,-1769,2684.3,-2456.5,-590.1
-1158.8,-5192.9,-2318.7,-4395.7,-1767.1,2689.8,-2452.8,-586.3
-1158.3,-5193,-2320.7,-4400.1,-1770.1,2678.4,-2458.1,-585.8
-1171,-5196.7,-2327.3,-4411.4,-1783.8,2651,-2456.6,-597.4
-1193.8,-5199.3,-2334.2,-4422.1,-1793.8,2627.2,-2459.1,-608.8
-1201.9,-5208.8,-2341.9,-4431.8,-1793,2623.8,-2468.2,-614.4
-1199.1,-5209.7,-2339.2,-4429.6,-1793.2,2624.5,-2469.4,-615.1
-1190.8,-5199.3,-2331.7,-4421.5,-1785.7,2632.8,-2468.2,-608.6
-1174.8,-5189.2,-2319.2,-4406.8,-1770.1,2652,-2460.4,-592.4
-1160.4,-5183.7,-2306.6,-4395.5,-1762.7,2662.3,-2450.9,-583.9
-1156.2,-5186.2,-2303.4,-4394.1,-1761.7,2665.9,-2446.3,-582
-1161.8,-5187.4,-2310.8,-4401.2,-1769.4,2660.5,-2447,-587.5
-1175.6,-5192.6,-2324.5,-4413.3,-1785.2,2646.8,-2454.3,-602.5
-1191,-5201.2,-2340.8,-4424.8,-1796.7,2640.9,-2464.4,-613.2
-1204.1,-5206.4,-2343.5,-4429.1,-1796.5,2640.7,-2470.6,-615.4
-1199.3,-5207.9,-2338.4,-4426,-1787.2,2643.2,-2490.3,-612.8
-1185.7,-5203.4,-2327.4,-4412,-1774.1,2658.2,-2488.9,-599.4
-1170.6,-5193.2,-2317.3,-4399.7,-1761.2,2678.7,-2465.4,-583.3
-1160.7,-5186.7,-2315.8,-4396.3,-1757.4,2690.7,-2445.2,-575.7
-1156.7,-5184.8,-2318,-4394.8,-1758.6,2693.5,-2443.9,-574.5
-1163.2,-5189.7,-2325.6,-4401.2,-1770.2,2683.4,-2448.6,-584.7
-1175.9,-5198.1,-2333,-4412.3,-1785.8,2668.2,-2456.2,-600.9
-1189,-5209.8,-2342.7,-4426,-1797.6,2661,-2468.5,-612.9
-1193.1,-5214.1,-2346.8,-4432.2,-1802.5,2658.8,-2477.1,-616.9
-1185.9,-5211.8,-2342.2,-4426.5,-1798.1,2649.3,-2474.4,-612.2
-1173.6,-5212.2,-2338.8,-4417,-1782.6,2648.8,-2471.2,-601.5
-1168.3,-5198.6,-2324.3,-4403.2,-1763,2654.9,-2456.1,-585.5
-1165.7,-5184.9,-2311.6,-4395.8,-1758.6,2660.1,-2447,-579.5
-1170.1,-5180.6,-2314.3,-4399.9,-1761.9,2659,-2447.6,-581.6
-1181.3,-5185.9,-2321.8,-4410.2,-1776.8,2644.1,-2453.2,-595.6
-1197.1,-5195.8,-2330.8,-4423.6,-1793.5,2627.2,-2463.8,-612.1
-1200.8,-5212.4,-2340.6,-4433.8,-1802,2624.6,-2474.1,-620.2
-1198.3,-5218.6,-2345,-4435.1,-1803.8,2626.2,-2477.6,-621.5
-1187,-5216.1,-2341.7,-4428,-1795.4,2638.1,-2477.2,-613.4
-1167.7,-5204,-2334.2,-4417.1,-1779.7,2661.4,-2466,-595.8
-1158.7,-5188.8,-2321.9,-4403.3,-1768.3,2675.7,-2450.8,-583.1
-1162.5,-5182,-2309.5,-4397.2,-1757.7,2678.7,-2447.8,-578.3
-1164.5,-5179.1,-2304.1,-4395.9,-1755.2,2675.4,-2460.8,-579
-1180.4,-5192.3,-2313.6,-4405.2,-1774.6,2654.7,-2457,-598.5
-1198.2,-5210.2,-2335.2,-4424.3,-1792.7,2643.4,-2469.2,-615.7
-1202.8,-5218.1,-2347.9,-4433.3,-1798.1,2645.5,-2477.7,-620
-1202.6,-5224.9,-2353,-4433.2,-1800.8,2647.2,-2483.3,-623.1
-1189.6,-5220.2,-2347.5,-4425.7,-1788,2667.1,-2475.7,-608.5
-1168.8,-5205.3,-2333,-4411.7,-1771.2,2690.6,-2459.2,-588.6
-1157,-5192.9,-2320.9,-4401.8,-1765.1,2698.6,-2440.6,-578.9
-1151.2,-5186.2,-2314.9,-4394.7,-1760.6,2700,-2426,-572.7
-1154.6,-5183,-2307.7,-4394.4,-1765.7,2674.1,-2438.4,-578.5
-1181,-5195.5,-2314.1,-4407.1,-1784.3,2634.3,-2451.2,-599.6
-1202.8,-5211.8,-2324.5,-4420.3,-1790.4,2616.5,-2468.2,-613.7
-1204.8,-5220.2,-2339.7,-4429.1,-1792.8,2615.5,-2475.5,-619.5
-1197.8,-5213.7,-2342.8,-4429.4,-1790.3,2623.6,-2473.6,-616.4
-1181.8,-5196.1,-2332.2,-4416.6,-1776.4,2644.7,-2459.9,-600.4
-1165.6,-5176.4,-2313.9,-4401,-1760.7,2663.6,-2438.3,-583.3
-1155.3,-5169.5,-2303.2,-4393.6,-1752.5,2672.7,-2426.7,-573.6
-1149.7,-5172.6,-2296.1,-4387.9,-1751.6,2673.8,-2424.3,-572.2
-1160.4,-5182.4,-2302.4,-4396.6,-1767.9,2656.1,-2436,-589.2
-1181.7,-5204.1,-2321.4,-4415.7,-1790.8,2635.6,-2459.2,-612.2
-1191.5,-5228.7,-2345,-4433.7,-1806.6,2625.6,-2484.1,-627.6
-1204.3,-5232.9,-2357.8,-4442,-1810.5,2626,-2488.3,-630.6
-1202.3,-5224.9,-2349.1,-4435.3,-1792.3,2639.2,-2488.8,-618.7
-1181.8,-5207.1,-2328.2,-4414.7,-1769.6,2662.8,-2484.5,-597.9
-1173.5,-5194.2,-2317.2,-4402.3,-1759.6,2677.3,-2451.1,-585.2
-1170.3,-5183.8,-2308.5,-4394.9,-1750.5,2689.2,-2431.2,-574.5
-1173.8,-5188.4,-2312.5,-4396.9,-1753.4,2688,-2429.9,-576.2
-1187.8,-5206.1,-2331.2,-4410.9,-1772.5,2671.4,-2444.8,-594.5
-1201.6,-5227.8,-2349.7,-4429.3,-1792.5,2656.1,-2465.6,-614.3
-1203.1,-5242.7,-2359.3,-4441.8,-1803.9,2649.1,-2481.3,-625.2
-1195.6,-5243.5,-2358.8,-4444,-1807.6,2648.9,-2486.5,-628.4
-1180.3,-5230.2,-2342.6,-4431.1,-1793.1,2658.2,-2482.3,-613
-1158.9,-5207.4,-2316.5,-4409.4,-1768.5,2668.5,-2449.3,-586.2
-1155.2,-5190.9,-2292,-4392.3,-1755.2,2665.8,-2429.5,-571.9
-1154.6,-5187.4,-2280.8,-4386.3,-1744,2665.5,-2425.2,-568.5
-1157.9,-5193.6,-2295.5,-4395.2,-1752.8,2656.9,-2433.6,-578.5
-1173.9,-5206.9,-2320,-4421,-1781.3,2633.5,-2458.6,-605.7
-1186.4,-5221.1,-2337.9,-4440.4,-1798.4,2620.9,-2476.4,-622.5
-1192,-5234,-2346.6,-4448.7,-1805.3,2616.9,-2485,-629
-1187.9,-5239.6,-2338.1,-4441.2,-1800.9,2620.3,-2480.8,-626.2
-1167.5,-5222.5,-2313.5,-4418,-1777.6,2644.3,-2461.3,-603.2
-1144.1,-5208.1,-2295.3,-4401.6,-1757.5,2670.1,-2441.5,-581.1
-1131.5,-5197.9,-2282,-4393.3,-1750.5,2680.1,-2429.4,-573
-1137.6,-5197.4,-2283.3,-4391.7,-1750.5,2682.8,-2428.2,-571.1
-1150.8,-5208,-2302.8,-4411.1,-1769.1,2667.8,-2441.6,-586.6
-1168.1,-5224.3,-2316.8,-4431.6,-1784,2646.2,-2476,-611.4
-1178.2,-5239.7,-2327.9,-4442.2,-1793.1,2638.9,-2497.3,-623.1
-1183.6,-5252.1,-2337.8,-4449.1,-1800.3,2634.7,-2486.8,-629.5
-1175.1,-5246.9,-2325.2,-4439.3,-1790.4,2644.8,-2473.5,-619.9
-1148.9,-5228.5,-2300.9,-4414.1,-1764.5,2674.8,-2452.5,-592.4
-1128.9,-5212.9,-2287.3,-4398,-1751.5,2695.8,-2439.1,-576.3
-1120.3,-5206.9,-2283,-4393.9,-1747.8,2704.7,-2432.4,-570.9
-1126.7,-5221,-2297.6,-4405.3,-1762.1,2695.3,-2445,-583.8
-1148.5,-5241.8,-2319.1,-4430.9,-1787.9,2671.9,-2451.5,-606.1
-1168.8,-5259.9,-2332.5,-4448.5,-1807,2644.6,-2476.8,-624.8
-1177.3,-5269.4,-2339.7,-4457.1,-1813.2,2622,-2493.1,-632.8
-1188,-5266.4,-2335.3,-4454.7,-1803.8,2605.3,-2490.6,-632.7
-1175.6,-5247.2,-2313.2,-4433.4,-1781.5,2624.9,-2470.3,-611.2
-1151.9,-5225.4,-2293.2,-4411.6,-1760.3,2652.1,-2448.7,-587.3
-1134.7,-5202.6,-2281.4,-4400.7,-1750.9,2667.2,-2434.6,-575.9
-1128.5,-5198.3,-2282.3,-4400.2,-1749.7,2673.5,-2434,-572.9
-1139.3,-5211.4,-2295.1,-4411.1,-1762.8,2663.6,-2443.5,-583.9
-1161.2,-5239.2,-2315.6,-4430.7,-1786.5,2641.2,-2463.6,-607.1
-1178.6,-5256.7,-2330.4,-4447.4,-1803.7,2627.8,-2480.9,-624.1
-1188.8,-5262.6,-2334.2,-4454.4,-1810.3,2622.6,-2486.3,-630.5
-1191.3,-5255.2,-2328.7,-4443.4,-1802.7,2629.9,-2478.9,-622.6
-1167.5,-5233.2,-2307.4,-4418.9,-1775.9,2655.5,-2475.4,-597.6
-1145.3,-5214.6,-2289.1,-4400.1,-1749,2678.8,-2460.8,-578.4
-1131,-5205.8,-2282.9,-4391.2,-1743.6,2689.6,-2443,-572.2
-1130.9,-5212.1,-2289.6,-4397.2,-1747.6,2690.4,-2433.3,-574.7
-1147.3,-5229.3,-2307.1,-4414.7,-1767.7,2674.6,-2450.4,-592
-1170.8,-5247.2,-2328.1,-4435,-1791.4,2655.2,-2469.6,-615
-1183.7,-5261.7,-2342.3,-4448.1,-1801.7,2649.8,-2483.4,-624.4
-1184.7,-5266,-2343,-4451.4,-1805.2,2648.3,-2486.6,-627.6
-1171.3,-5256.7,-2332.7,-4439.6,-1793.2,2662.8,-2473.8,-614.6
-1147.7,-5238.4,-2310.5,-4415.9,-1769.5,2688.9,-2455.5,-589.2
-1127.8,-5219.3,-2290.2,-4399.7,-1753.3,2694.1,-2436.2,-571.3
-1123,-5209,-2282.5,-4393.7,-1743,2688.5,-2419.9,-564.2
-1137.2,-5211.8,-2283.4,-4395.3,-1740.6,2670.1,-2423.8,-567.1
-1159.5,-5227.3,-2302.7,-4417.3,-1766.2,2646,-2444.5,-591.5
-1180,-5238.3,-2323.7,-4437.3,-1788.7,2627.3,-2461.8,-613.1
-1189.7,-5250.1,-2336.6,-4449.3,-1797.8,2622.3,-2474.8,-621.9
-1186.3,-5250,-2339.4,-4448.9,-1796.3,2628.2,-2474.8,-619.9
-1167,-5243.4,-2324.2,-4431.4,-1777.8,2649.8,-2460.3,-601.8
-1146.7,-5239.3,-2306.2,-4413.7,-1763.6,2666.1,-2451.5,-587.6
-1133,-5222.5,-2292.2,-4404,-1754.4,2679.3,-2434.2,-575.1
-1126.4,-5216,-2286.1,-4401.4,-1752.7,2681.9,-2427.6,-572.3
-1142.4,-5226.3,-2299.3,-4412,-1767.6,2667.1,-2444.3,-584.9
-1174.4,-5241.2,-2318.1,-4434.3,-1785.4,2647.5,-2479.9,-606.2
-1193.2,-5255.6,-2335.2,-4450.7,-1794.5,2636.9,-2497,-621.9
-1199.1,-5267.6,-2347.1,-4456.2,-1801.7,2634.5,-2493.1,-629.9
-1187.2,-5261.5,-2345.9,-4450.6,-1794.8,2647.2,-2478.3,-623
-1166.2,-5247.1,-2329.9,-4431.2,-1776.5,2669.8,-2463.8,-604.1
-1144,-5230.4,-2308,-4408,-1756.8,2692.7,-2444.1,-583.1
-1130.4,-5217.9,-2292.4,-4395.1,-1749.4,2701.1,-2430.2,-574.6
-1131.2,-5217,-2286.2,-4394.2,-1753,2695,-2430.9,-578
-1149.6,-5230.7,-2298.9,-4411.3,-1772.5,2676.2,-2443.6,-593.4
-1167.1,-5247.7,-2321.8,-4432.4,-1794.2,2658.6,-2469.5,-613
-1178.7,-5261.5,-2339.2,-4449.8,-1807.5,2634.6,-2486,-625.7
-1181.9,-5263.5,-2343.4,-4452.7,-1802.6,2620.2,-2487.1,-626.4
-1174.6,-5250.1,-2330.7,-4439.2,-1786,2625.4,-2475.5,-614.9
-1152.8,-5227,-2307.2,-4418.5,-1766.8,2646.4,-2458.4,-595
-1133.8,-5203.8,-2285,-4399.1,-1751.4,2664.8,-2439.3,-577.1
-1128.4,-5192.6,-2269.7,-4389.4,-1747,2668.8,-2429,-572.3
-1136.8,-5198.8,-2270.7,-4393.3,-1754.4,2660.9,-2433.8,-578.2
-1153.2,-5225.9,-2292.1,-4410.3,-1773.4,2645.4,-2453.1,-595
-1174.4,-5250.2,-2319.8,-4435.4,-1796.6,2628.3,-2476.2,-617.3
-1182.3,-5262.8,-2336.4,-4449.3,-1805.4,2627,-2488.7,-624.4
-1176.1,-5260.5,-2341.3,-4449.6,-1803.9,2634.6,-2486.8,-621.5
-1165.1,-5242.9,-2323.2,-4429.4,-1787.6,2650.3,-2467.4,-606.8
-1149.2,-5220.5,-2295,-4402.9,-1755.5,2674.1,-2450.4,-582
-1133.2,-5202,-2274.4,-4384.1,-1738.8,2688.6,-2445.2,-567.4
-1132.9,-5198.8,-2272.1,-4381.2,-1738.7,2689.9,-2421.3,-566.3
-1145.3,-5213.3,-2290.1,-4395.4,-1752.8,2681.1,-2434.6,-577.1
-1165.2,-5234.8,-2315.4,-4419.2,-1777.7,2660.4,-2457.8,-600.2
-1181.8,-5258.2,-2338.9,-4439,-1798.9,2645.7,-2481.7,-621.4
-1186.9,-5279.3,-2354.4,-4453.6,-1810.8,2639.8,-2501.9,-633.5
-1181.3,-5270,-2348.5,-4449.3,-1806.5,2647,-2491.7,-628.4
-1164.2,-5249.4,-2330,-4429.8,-1786.5,2670.5,-2469.7,-607.3
-1144.7,-5228.8,-2306.2,-4409.3,-1766.5,2693.3,-2441.2,-584.6
-1132.5,-5215.1,-2288.2,-4400.5,-1758.5,2697.9,-2421.6,-575.4
-1129.9,-5210.5,-2284.4,-4399.6,-1755.7,2683.2,-2429.3,-572.2
-1151.3,-5224.7,-2299.2,-4411,-1763.1,2650.2,-2442.8,-587.6
-1178.1,-5247.8,-2319.3,-4430.7,-1784.6,2622.5,-2465.2,-611.8
-1191.1,-5269.6,-2337.5,-4449.6,-1800.6,2613.1,-2486.5,-627.3
-1193.5,-5266.8,-2341,-4452.3,-1804.8,2612.3,-2489.9,-630.4
-1182.5,-5249.1,-2331.5,-4440.7,-1793.2,2625.9,-2474.9,-618.9
-1159.2,-5227.8,-2310.3,-4421.1,-1771.3,2650.8,-2452.4,-597.1
-1134.4,-5208.7,-2281.7,-4398.2,-1750.6,2673.9,-2424.8,-573.9
-1124.8,-5200.8,-2275.2,-4390.9,-1745.1,2685.1,-2417.2,-565.4
-1134.1,-5210.8,-2285.5,-4399,-1754.8,2678.6,-2429.1,-574.2
-1153.5,-5229.4,-2305.4,-4416.5,-1777,2656,-2449.1,-596
-1185.4,-5253.1,-2330.1,-4441.2,-1800.2,2636.3,-2473.9,-620.1
-1200,-5268.1,-2339.4,-4454.8,-1802.4,2628.4,-2501.4,-629.4
-1195.4,-5263.3,-2331.5,-4447,-1798.3,2630.5,-2505.3,-627.5
-1177.7,-5247.5,-2321.2,-4431,-1782.5,2650.3,-2471.2,-611.2
-1149.7,-5219.8,-2298.2,-4406.6,-1756.5,2682.7,-2442.3,-582.9
-1129.1,-5200.9,-2281,-4389.6,-1742,2703.8,-2423,-565.6
-1125.5,-5203.6,-2288.7,-4390.4,-1745.5,2707.2,-2425.6,-567.1
-1133.9,-5217.3,-2300.7,-4402.4,-1758.4,2695.9,-2437.7,-578.4
-1158.1,-5241.2,-2323,-4425.9,-1786.4,2668.5,-2462.4,-605.5
-1177.6,-5259.5,-2343.1,-4445.4,-1807.2,2651.2,-2482.2,-625
-1182.5,-5267.4,-2341,-4447.5,-1811,2638.4,-2496.5,-630
-1172.1,-5257.3,-2326.2,-4439,-1802.4,2630,-2478.6,-621.6
-1158.4,-5229.9,-2300.5,-4418.1,-1776.8,2641.5,-2449.2,-596
-1137.1,-5206.1,-2277.5,-4395.1,-1743,2669.6,-2426,-569.5
-1124,-5192.1,-2272.1,-4385.4,-1735.5,2681.4,-2414.3,-560.8
-1128.7,-5194.5,-2281.7,-4391.8,-1744.4,2677.7,-2424.6,-568
-1145.9,-5221.2,-2302.8,-4413,-1770.7,2651.9,-2454.9,-593.9
-1171.7,-5248.1,-2326.8,-4438.9,-1799.9,2623.2,-2480.2,-623
-1189.1,-5270.3,-2341.2,-4453.7,-1813.8,2611.4,-2495,-637.7
-1190.5,-5271.1,-2337.6,-4452.7,-1813,2612.6,-2494.9,-637.5
-1178.1,-5256,-2324.5,-4442.5,-1801.5,2627.6,-2478.5,-626.2
-1154,-5229.8,-2306.9,-4418.3,-1773.6,2660.5,-2449.6,-597
-1139.5,-5207.1,-2287.6,-4396.5,-1749.7,2687.6,-2425.3,-573.2
-1132.6,-5200.3,-2281.8,-4393,-1738.8,2695,-2435.2,-567.5
-1140.9,-5216.4,-2295.6,-4400.8,-1748.8,2688.5,-2449.8,-576.4
-1163.7,-5243,-2318,-4423.7,-1773.3,2665.2,-2458.6,-600.2
-1187.1,-5265.9,-2339.1,-4447.1,-1798.5,2642.9,-2480.5,-624.1
-1197.1,-5277.5,-2350.3,-4457,-1808.4,2637.8,-2492.5,-632.5
-1190.8,-5264.8,-2339.8,-4447.7,-1803.3,2645.5,-2479.3,-626.3
-1173,-5246.9,-2324.4,-4429.8,-1785.8,2666.6,-2459.3,-608.6
-1148,-5225.2,-2306.6,-4407.1,-1759.5,2699,-2433.3,-579.8
-1132.9,-5213.6,-2295.6,-4395.5,-1748,2716.4,-2405,-564.5
-1128.2,-5218,-2293.4,-4396.5,-1750.2,2704.2,-2421.4,-565.3
-1142.3,-5230.5,-2298.8,-4407.2,-1759.9,2675.9,-2440.5,-577.7
-1162.4,-5248.9,-2317.6,-4428.5,-1780.5,2632.2,-2467.9,-605.5
-1182.4,-5261.2,-2334.5,-4447.6,-1803.5,2611.2,-2488.9,-628.7
-1184.4,-5252.3,-2338,-4449.9,-1804.2,2615,-2488.7,-628.8
-1175.7,-5242.4,-2324.3,-4439.9,-1795,2624.4,-2476.1,-620.9
-1154.4,-5224.9,-2305.1,-4422.3,-1774.4,2648.3,-2453.2,-600.1
-1126.9,-5212.4,-2282.8,-4400.2,-1750,2678,-2430,-574.2
-1115.4,-5208.6,-2270,-4388.7,-1743.4,2685.7,-2421.6,-566.7
-1118.5,-5215.3,-2277.6,-4395.3,-1750.3,2681.8,-2428.5,-572.4
-1135.8,-5233.3,-2300.4,-4412.8,-1766,2668.8,-2444.7,-586.6
-1167.7,-5257,-2322.5,-4437.2,-1786.7,2642.9,-2471.3,-611.9
-1181.5,-5267.7,-2333.8,-4451.6,-1793.3,2635.8,-2500.4,-623.3
-1178.7,-5265.2,-2332.2,-4448.1,-1790.8,2643.2,-2483.7,-619
-1166.3,-5255.9,-2320.9,-4438.9,-1782.8,2654.8,-2464.3,-610.5
-1139.8,-5234.2,-2301.1,-4416.9,-1762,2681.5,-2443.6,-588.6
-1120.9,-5228,-2288.9,-4400.7,-1750.7,2695.7,-2436.5,-577.1
-1121.1,-5228.9,-2286.2,-4400.7,-1753.2,2695,-2434.5,-577.6
-1130.4,-5238.4,-2297.8,-4411.1,-1761.6,2691.2,-2441.2,-583.7
-1152.7,-5260.8,-2319.8,-4431.6,-1785.1,2670.5,-2459.7,-604.2
-1177.5,-5283.4,-2343.2,-4456.9,-1811,2646.9,-2472.6,-628.6
-1178,-5279.1,-2345.3,-4461.3,-1810.8,2635.9,-2485.1,-628.1
-1173.8,-5271,-2335.1,-4452.5,-1798.3,2625.4,-2478,-622.6
-1164.1,-5251.7,-2313.9,-4432.5,-1777,2633.9,-2456.5,-606.3
-1140.9,-5227.7,-2291.8,-4410.1,-1755.9,2657.8,-2438.5,-584.5
-1127.5,-5211.1,-2273.5,-4394.4,-1746.2,2668.8,-2427.4,-573
-1128.6,-5212.5,-2275,-4398.5,-1751.8,2666.3,-2430.4,-576.9
-1137.6,-5226.2,-2291,-4414.1,-1763.6,2659.2,-2444.4,-586.3
-1160,-5251.5,-2312.4,-4435.4,-1784.4,2640.9,-2459.9,-605.3
-1175.2,-5270.3,-2332.3,-4453.2,-1801.7,2630.9,-2476.7,-621.9
-1171.4,-5271.8,-2338.4,-4458,-1802.8,2636,-2478.6,-622.4
-1170.4,-5260.2,-2327.3,-4448.8,-1796.3,2641.8,-2467.6,-616.3
-1157.4,-5242.7,-2307.7,-4428.2,-1771,2658.2,-2460.2,-598.9
-1134.8,-5224.2,-2283.6,-4401.7,-1746.1,2681.4,-2452.8,-576.6
-1130.8,-5219.3,-2275.9,-4393,-1742.9,2687.4,-2427.8,-571.4
-1135.4,-5227.4,-2287.1,-4400.7,-1749,2689.3,-2432.6,-574.3
-1150.4,-5240.1,-2308,-4414.9,-1762.9,2682.3,-2447.8,-585.4
-1168,-5260,-2333.7,-4435.1,-1788,2662.1,-2471,-609.4
-1174.4,-5270.7,-2349.6,-4449.8,-1801.1,2657.3,-2482,-621.2
-1172,-5268,-2345.2,-4449.1,-1802,2658.9,-2479.5,-621.5
-1159.7,-5258.7,-2326,-4436.2,-1793.4,2666.5,-2457.9,-612
-1140.7,-5243.1,-2298.8,-4415.5,-1773.8,2678.3,-2437.9,-593.4
-1119.4,-5221.8,-2273.9,-4394.6,-1751.6,2683.1,-2424.1,-571.6
-1124.1,-5219.1,-2273,-4394.2,-1740.8,2672,-2419.1,-567
-1134.1,-5225.8,-2283.1,-4402.7,-1743.8,2668.9,-2424,-569.5
-1151.3,-5241,-2301.9,-4420.3,-1765.1,2651,-2443.1,-588.4
-1172.5,-5253.5,-2322,-4441.8,-1789.3,2629.2,-2464.5,-612.2
-1178.8,-5260.2,-2330.5,-4450.7,-1796.9,2626.6,-2473.8,-620
-1175.3,-5266.9,-2331.8,-4451.3,-1800.5,2626.2,-2478.3,-623.5
-1162.2,-5258.5,-2314.9,-4437.7,-1789.2,2636.5,-2460.8,-613.7
-1140.7,-5237.5,-2293.8,-4415.7,-1766.7,2660,-2438.3,-591.4
-1127.3,-5229.1,-2284.4,-4405,-1755.1,2676.8,-2429,-577.2
-1127.4,-5229.7,-2290.5,-4407.9,-1758.4,2678.6,-2429.7,-577.7
-1146.4,-5239.2,-2302.9,-4415.6,-1763.2,2674.5,-2438.2,-580.3
-1165.9,-5258,-2319.2,-4432.8,-1775,2655.3,-2475,-600.5
-1181.2,-5269.6,-2331.1,-4445.5,-1792.6,2639,-2494.6,-619.2
-1182.5,-5277.9,-2341.3,-4454.9,-1797,2641.6,-2486.3,-622.8
-1174.8,-5272.1,-2334.8,-4450.6,-1793.4,2649.3,-2477.1,-617.7
-1156.8,-5251.4,-2315,-4431.5,-1778.6,2667.1,-2454.1,-602.5
-1137.7,-5234.3,-2299.1,-4410.7,-1758.6,2693.6,-2437.1,-579.8
-1130.6,-5223.9,-2287.6,-4400.8,-1752.8,2702.5,-2427,-571.7
-1131,-5227.2,-2287.4,-4399.7,-1756.9,2700.3,-2432.4,-574.5
-1142.4,-5248.6,-2308.3,-4417.1,-1773.2,2688.3,-2442.1,-587.8
-1155.7,-5264.5,-2321.7,-4433.2,-1794.4,2655.4,-2469.2,-609.1
-1165.4,-5275.2,-2328.8,-4443.4,-1805,2628.6,-2486.5,-622.5
-1176.7,-5272.1,-2331.2,-4442.2,-1794.7,2618,-2482.8,-619.5
-1171.2,-5258,-2317.7,-4430,-1785.9,2624.9,-2467.5,-611.9
-1149.2,-5233.4,-2297.6,-4411.1,-1765.4,2649,-2444.3,-591.3
-1131.7,-5209.8,-2286.9,-4400.5,-1748.8,2672.8,-2428.4,-571.8
-1125.5,-5206.2,-2279.7,-4396.9,-1746.3,2677.8,-2424.2,-567.1
-1131.8,-5221.3,-2286,-4404.4,-1755.5,2671.4,-2434.6,-575.9
-1144.5,-5244.7,-2301.8,-4418.1,-1773.4,2655.7,-2452.8,-592.9
-1163.2,-5263.3,-2315.3,-4435.8,-1795.1,2632.6,-2470.8,-615
-1168.8,-5271.8,-2324.2,-4443.6,-1802.2,2629.9,-2480,-622.3
-1167.3,-5265.5,-2328.7,-4440.5,-1797.3,2639.2,-2471.9,-616.3
-1165.7,-5248.3,-2315.5,-4426.9,-1781.4,2653.2,-2452.6,-603.8
-1144.7,-5228.1,-2299.2,-4411.4,-1753,2680.5,-2434.7,-580.6
-1132,-5218,-2291.9,-4401.1,-1743.3,2698.2,-2419.1,-568.3
-1132.2,-5220.7,-2289.5,-4399.9,-1746.9,2698.1,-2424.3,-569.5
-1143.8,-5236.9,-2299.7,-4406.4,-1758.5,2687.7,-2440.2,-581
-1161.9,-5266.8,-2319,-4424,-1783.5,2661.6,-2469,-606.1
-1177.7,-5284.7,-2331.8,-4443,-1803.4,2641.8,-2485,-626.2
-1182.5,-5285.6,-2340,-4451.1,-1807,2645.2,-2485.6,-628.6
-1176.2,-5274.6,-2335.8,-4445.7,-1801.2,2655.8,-2473.5,-620.7
-1162.5,-5257.2,-2323.7,-4434.4,-1788.3,2672.1,-2442.3,-606.5
-1140.6,-5235.1,-2304.8,-4414.5,-1764.9,2685.3,-2432.8,-581
-1129.9,-5227.4,-2291.7,-4403.2,-1751.6,2680.7,-2427.5,-570.8
-1141.1,-5228.2,-2287.1,-4404.1,-1748.3,2664.9,-2429.1,-573.8
-1152.7,-5246.8,-2296.4,-4415.9,-1762.5,2651.2,-2448.9,-587.9
-1171.6,-5264.5,-2313.2,-4431.3,-1784.5,2628.3,-2470.5,-609.2
-1183.8,-5265.6,-2325,-4443.8,-1799.6,2616.1,-2478.4,-624.3
-1182.2,-5262.8,-2327.8,-4446.8,-1799.8,2622,-2475.7,-623.3
-1167.5,-5251.1,-2314.5,-4436.9,-1788.9,2636.3,-2456,-611.6
-1146.1,-5235,-2298.1,-4418.5,-1771.7,2657.3,-2438.1,-593.6
-1128.4,-5227.4,-2291.6,-4405.7,-1757.3,2678.1,-2431.8,-577.1
-1125.7,-5224.2,-2287.1,-4399.2,-1754.4,2684.7,-2429.5,-572.3
-1139.8,-5233.6,-2297,-4403.4,-1761.8,2679.2,-2447,-577.3
-1154,-5250.5,-2308.4,-4417.1,-1771,2663.8,-2482.5,-590.6
-1169.3,-5262.2,-2319.2,-4432.7,-1786.3,2643.4,-2495.1,-612
-1177.4,-5269.6,-2328.1,-4442.5,-1797.5,2637.1,-2485.8,-623.3
-1173.6,-5260.7,-2326.7,-4441.5,-1791.4,2649.8,-2469.1,-615.6
-1160,-5244.4,-2313.4,-4426.1,-1780.5,2664.9,-2452.1,-604.5
-1142,-5233.7,-2299.8,-4409.3,-1764.4,2684.9,-2442.1,-587.9
-1130.6,-5224.8,-2290.8,-4399,-1753.7,2701.1,-2431.6,-575.1
-1129.8,-5231.3,-2292.4,-4400.6,-1756.3,2703.3,-2434.9,-576.3
-1141.7,-5246.7,-2302.2,-4410,-1762.9,2696,-2453,-580.4
-1157.6,-5260.7,-2317.5,-4427.1,-1777.2,2667,-2460.9,-593.1
-1171.2,-5262.2,-2320,-4437.3,-1792.4,2633,-2461,-609.5
-1178,-5260.4,-2317.7,-4441.4,-1791.2,2623.1,-2460,-615.4
-1168,-5248.9,-2309,-4431.9,-1782.6,2631.5,-2452.4,-609.4
-1155.1,-5229.7,-2295.9,-4417.9,-1772,2642.4,-2441.4,-599.4
-1137.5,-5219.7,-2284.6,-4403.3,-1757.5,2660,-2437.8,-584.7
-1125.8,-5226.3,-2281.9,-4401.8,-1757.2,2665.3,-2443.2,-583.1
-1127.9,-5240.9,-2285.8,-4410.7,-1764.6,2661.2,-2449.8,-588.8
-1139.5,-5254.8,-2299,-4424.4,-1775.9,2653.7,-2460.6,-598.3
-1153.4,-5268.1,-2313.9,-4441.3,-1791.6,2642.5,-2471,-612.1
-1165.8,-5277.6,-2323.3,-4452.3,-1805.3,2630.8,-2480.7,-625.2
-1175.2,-5271.8,-2321.9,-4450.2,-1799.8,2638,-2471.2,-617.9
-1168.9,-5261.9,-2305.9,-4437,-1782,2645.3,-2466.7,-610.9
-1150.3,-5250.7,-2285.1,-4417.4,-1766.9,2655.1,-2465.1,-600.8
-1134.1,-5247.4,-2280.2,-4408.6,-1755.9,2673.4,-2443.1,-587.5
-1126.7,-5248.7,-2283.8,-4409.9,-1755.8,2682.5,-2441.4,-583.4
-1129.4,-5256.2,-2293.8,-4416.2,-1763.2,2681.8,-2450.2,-588.1
-1140.9,-5267.9,-2313.3,-4428.9,-1776.3,2675,-2464.2,-598.4
-1150.8,-5271.6,-2318,-4440.7,-1790.7,2661.2,-2468,-612.3
-1157.8,-5278.8,-2321.3,-4448,-1799.4,2655.6,-2474.1,-621.4
-1154.1,-5277.5,-2317.5,-4445.8,-1796.2,2661.2,-2459.8,-617.3
-1146.9,-5268.5,-2301.5,-4434,-1789.2,2658.3,-2449.7,-611.9
-1133.7,-5256.7,-2283.3,-4417.3,-1773.4,2655.2,-2446.2,-598
-1130.5,-5247.4,-2275.9,-4405.9,-1751.3,2657.4,-2436.1,-581.7
-1133,-5249.2,-2275.7,-4406.7,-1751,2658.9,-2436.2,-580.3
-1136.6,-5259.5,-2287.8,-4416,-1758,2657.3,-2446,-584.8
-1143.8,-5259.6,-2303.4,-4428.6,-1768.9,2652.2,-2454.2,-592.8
-1155.8,-5264.2,-2309.2,-4440.9,-1785.2,2637.3,-2459.8,-608.6
-1160.6,-5270.2,-2309.1,-4445.2,-1790.2,2634.9,-2462.5,-614.7
-1154.6,-5269.3,-2297.5,-4437.4,-1787.3,2638.1,-2452.8,-612.3
-1148.3,-5262.2,-2288.9,-4427.8,-1780.8,2644.1,-2445.9,-606.3
-1131.7,-5254.5,-2280.6,-4416.1,-1765.2,2663.2,-2437.8,-589.1
-1118.8,-5249.4,-2280.9,-4409.4,-1756.1,2678.1,-2431.1,-577.4
-1129.7,-5251.2,-2286.3,-4411.4,-1758,2678.1,-2435,-577.9
-1138.5,-5259.3,-2296.3,-4417.7,-1753.8,2677.1,-2450.2,-581.8
-1150.2,-5264.7,-2307.7,-4427.1,-1766.8,2668,-2449.5,-594
-1160,-5270.3,-2313.3,-4437.3,-1784.4,2653.2,-2456.4,-611
-1158.9,-5272.7,-2313.4,-4436.7,-1786.6,2654.7,-2461.9,-612.9
-1155.3,-5274.6,-2313.6,-4435.4,-1790.4,2653.7,-2466.1,-616.8
-1147.6,-5269,-2304.5,-4430.3,-1784.2,2662.4,-2461.7,-610.2
-1134.7,-5260.3,-2295,-4419.5,-1770.9,2680.2,-2454.1,-595.3
-1127.3,-5258.1,-2294.7,-4414.4,-1767.4,2689.7,-2453,-587.8
-1131.8,-5264.4,-2302.8,-4423.1,-1775.4,2685.9,-2446.2,-593.1
-1134,-5263.3,-2301.4,-4424,-1776.6,2672,-2455.8,-593.4
-1143.2,-5269.4,-2308.6,-4432.8,-1786.2,2645.1,-2465.6,-604.6
-1160.8,-5271.2,-2310.8,-4438.2,-1786.4,2623.5,-2466.2,-613
-1160.4,-5268.7,-2306.6,-4438.2,-1787,2624.1,-2464.9,-614.8
-1156.3,-5257.3,-2302.8,-4436,-1784.2,2630.7,-2459.1,-611.2
-1149.6,-5249.1,-2294,-4428.4,-1774.7,2643.3,-2451.1,-601.6
-1137.9,-5242.2,-2283.5,-4417.6,-1762.2,2659.6,-2443.4,-587.1
-1131,-5243.9,-2278.8,-4415.7,-1759.9,2665.5,-2439.4,-582.7
-1129.9,-5253.1,-2278.1,-4415.9,-1763.4,2663.8,-2444.7,-585.7
-1135.2,-5261.6,-2285.9,-4422.5,-1772,2655.8,-2453.3,-594
-1151,-5270.5,-2299.9,-4434.8,-1786.6,2643.9,-2460.9,-608.3
-1165.4,-5273.9,-2308.9,-4439.1,-1793,2641.4,-2465.9,-613.5
-1161.1,-5270,-2307.8,-4438,-1786.9,2648,-2480.8,-609
-1156.4,-5267.9,-2309.2,-4436.8,-1776.5,2655.6,-2464.6,-606.6
-1147.2,-5261,-2299.4,-4424.5,-1764.5,2670.9,-2445.6,-594
-1138.1,-5253.1,-2291.4,-4412.7,-1753,2688.4,-2436,-579.1
-1137,-5256.8,-2292.6,-4410.3,-1755.2,2689.6,-2438.6,-579.2
-1137.9,-5262.1,-2288,-4408.1,-1760,2682.9,-2444.7,-583.3
-1142.8,-5268.2,-2295.7,-4417.7,-1772.1,2672.2,-2454.9,-594.4
-1150.7,-5276.5,-2308.8,-4431.4,-1787.1,2661.7,-2464.6,-608.3
-1152.6,-5278,-2313.9,-4437.5,-1790.5,2664.1,-2463.9,-609.6
-1149.5,-5273.5,-2316.6,-4439.2,-1790.6,2669,-2447.1,-607.9
-1141.7,-5263.6,-2307,-4432.1,-1785,2659.3,-2452.4,-602.9
-1130.3,-5251.9,-2292.1,-4418.1,-1762.6,2662.8,-2438.9,-585.1
-1130.2,-5246,-2282.1,-4410,-1746.7,2664.3,-2432.2,-574.5
-1129.8,-5250.5,-2278.1,-4408.7,-1748.7,2662.2,-2435.2,-576
-1133.7,-5252.6,-2281.3,-4411.7,-1754.6,2657.2,-2441.7,-581.7
-1148,-5264.8,-2300.7,-4429.8,-1778,2636.4,-2463.2,-605.3
-1158.9,-5272.2,-2314.1,-4443.3,-1791.1,2627.9,-2469.3,-617.5
-1158.5,-5277.4,-2316.7,-4446.5,-1790.4,2634.6,-2464.9,-615.7
-1157.8,-5277.3,-2315.2,-4448.9,-1791.6,2637.8,-2460.3,-616.7
-1148.7,-5271.7,-2303.8,-4441.1,-1781.5,2649,-2453.1,-607.3
-1144.9,-5260.4,-2287.9,-4426,-1765.6,2666.5,-2439.7,-590
-1145.1,-5256.5,-2282.5,-4416.9,-1761,2672.4,-2441.9,-582.4
-1139.9,-5256.2,-2278.5,-4412.7,-1753.4,2673.8,-2462.2,-580.6
-1142,-5263.7,-2286.9,-4419.4,-1759.9,2664.9,-2472.7,-591.2
-1154.9,-5275.1,-2305.3,-4431.5,-1779.1,2649.1,-2466.9,-609.4
-1162.7,-5278.1,-2317.5,-4440.9,-1787.7,2648.7,-2464,-616.8
-1162.3,-5275.5,-2320.3,-4444.6,-1788.9,2653.9,-2460.9,-616.6
-1157.9,-5270.8,-2316.4,-4439.8,-1785.1,2660.9,-2453.2,-612.5
-1144.2,-5263.5,-2303.3,-4426.6,-1771.9,2677.4,-2445.8,-598.9
-1134.8,-5261.3,-2293.1,-4416.8,-1763,2689.2,-2444.7,-588.7
-1130.1,-5260,-2287.3,-4411.3,-1762.1,2692.3,-2439.8,-585
-1132.1,-5263.7,-2290.7,-4412.7,-1765.5,2687.7,-2437.3,-587
-1138.3,-5266.5,-2294.8,-4419.9,-1774.6,2660.3,-2454.3,-595.8
-1153.1,-5269.1,-2304.6,-4430.2,-1779.7,2631.8,-2456,-607.9
-1163.1,-5268,-2310.5,-4434.5,-1780,2627.5,-2454.4,-610.7
-1165.6,-5260.7,-2311.3,-4434.4,-1781.4,2629.8,-2454.4,-610.4
-1158.8,-5251.6,-2305.5,-4429.5,-1777.4,2636.1,-2450.5,-606
-1143.3,-5247.2,-2294.7,-4420.5,-1764,2653.8,-2444.5,-592
-1131.5,-5251.3,-2286,-4413.5,-1755.6,2665.9,-2439,-582.3
-1126.2,-5250.1,-2286.2,-4414.2,-1756.6,2669.4,-2435.8,-582.4
-1126.9,-5251,-2283.2,-4416,-1758,2667.6,-2435.7,-584.2
-1140,-5261.6,-2289.1,-4426,-1771,2654.7,-2445.3,-596.9
-1158.2,-5266.2,-2298.9,-4436.3,-1783.2,2647.1,-2448.1,-608.2
-1163.3,-5265.3,-2300.4,-4436.9,-1783.4,2648.8,-2459.4,-606.7
-1164.1,-5264.6,-2298.6,-4434.3,-1776.7,2648.9,-2468.5,-608.7
-1156.1,-5260.2,-2298.5,-4428.5,-1769.9,2658.9,-2446.6,-603.6
-1142.7,-5259.4,-2295.8,-4418.8,-1759,2677.2,-2444.6,-590.1
-1133.9,-5266.6,-2299.2,-4419.3,-1761.9,2681.7,-2450.8,-590.8
-1131,-5266.6,-2304.2,-4420.6,-1761.8,2687.3,-2450.7,-588.5
-1135.9,-5268.9,-2304.4,-4422.8,-1767.5,2681.9,-2453.5,-593.1
-1148,-5273.8,-2310.4,-4430.5,-1783.9,2665.2,-2461.9,-609.2
-1158.3,-5275.8,-2314.6,-4438.7,-1795.9,2656.3,-2468,-619.6
-1161.1,-5273.4,-2310.3,-4439.2,-1795.9,2648.6,-2473.1,-618.8
-1157.4,-5270.7,-2308.2,-4436.6,-1794.5,2634.1,-2461.3,-617.4
-1152.2,-5262.8,-2295,-4424.4,-1779.2,2633.6,-2451.8,-603.8
-1140.9,-5260,-2287.6,-4416,-1760.4,2647,-2450.3,-592.3
-1132.2,-5257.1,-2290.8,-4416.2,-1758.1,2655.5,-2447.1,-587.8
-1130.8,-5247.1,-2287.9,-4416,-1757.5,2658.8,-2444.3,-585.5
-1140.5,-5249.6,-2289.5,-4422.7,-1766.3,2649.2,-2448.1,-593.3
-1151.8,-5253.3,-2293,-4430.4,-1778.8,2636.8,-2448.3,-605.5
-1156.8,-5263.8,-2295.3,-4433.8,-1786.3,2631.3,-2451.8,-613.3
-1159.2,-5270.1,-2300.2,-4439.6,-1790.2,2628.6,-2457.5,-618.1
-1153.8,-5267.6,-2299.7,-4436.5,-1786.8,2635.2,-2456.3,-614.8
-1143.3,-5264.2,-2295.1,-4426.6,-1776.7,2649.9,-2455.8,-604
-1140.6,-5257.4,-2292.2,-4417.8,-1763.8,2668,-2449.9,-589.9
-1135.2,-5252.2,-2285.2,-4414.6,-1750.9,2677.7,-2459.6,-582.2
-1136.1,-5252.8,-2282.7,-4411.4,-1751.6,2677.3,-2456.1,-582.7
-1145.1,-5257.1,-2293,-4418,-1762,2667.3,-2444.8,-592.3
-1154.5,-5261.3,-2299,-4426.3,-1776.7,2655,-2449.7,-606.4
-1162.1,-5270.3,-2304.4,-4433.7,-1785.9,2649.9,-2457.4,-614.4
-1164.3,-5276.1,-2309,-4435.1,-1788.4,2651.6,-2462.3,-615.4
-1155.8,-5274,-2306.6,-4431.7,-1782.6,2662.2,-2458.6,-609.5
-1137.6,-5272.8,-2304.3,-4425.9,-1767.2,2686.8,-2452.3,-591.6
-1128.5,-5275,-2303.4,-4424.8,-1762,2697.2,-2431.7,-583.9
-1119.5,-5265,-2286.4,-4418.5,-1755.5,2690,-2425.2,-577.2
-1122.9,-5265.3,-2280.4,-4417.3,-1755.7,2672,-2421.6,-576.5
-1144.5,-5264.7,-2279.2,-4416.7,-1760.6,2645.5,-2424.9,-584.9
-1158.3,-5263.7,-2292.3,-4425,-1770.5,2631.5,-2440.3,-602.2
-1162.8,-5262,-2301.6,-4432.1,-1782.6,2622.9,-2458,-614.2
-1164.8,-5261.8,-2309.5,-4438.4,-1794.8,2615.8,-2474.6,-625.7
-1160,-5258,-2310.8,-4435.1,-1787.6,2628.2,-2471.1,-617.2
-1147.9,-5256.1,-2305.2,-4425.3,-1772.3,2649.5,-2461.4,-599.8
-1137.1,-5250.9,-2296,-4415.5,-1764.7,2660.5,-2449.8,-590.6
-1134.8,-5244.9,-2291.6,-4413.1,-1763.7,2663.5,-2444.6,-588.8
-1138,-5239.4,-2289.5,-4414,-1767.9,2659.5,-2442.3,-591.4
-1152,-5245.6,-2295.7,-4422.7,-1782.9,2644.3,-2449,-606.4
-1172.6,-5253.3,-2311.3,-4431,-1787.4,2639.1,-2460.4,-615.3
-1176.2,-5261,-2317.7,-4437.2,-1786.7,2635.4,-2490.5,-621.2
-1173.1,-5263.3,-2318.6,-4438.9,-1787.5,2636.8,-2481.4,-622.4
-1161.7,-5261,-2317,-4430.5,-1776.4,2654.9,-2466.5,-609.3
-1149,-5253.5,-2306,-4419.7,-1765.3,2671.5,-2455.2,-595.7
-1138.6,-5241.3,-2294.5,-4407.4,-1755.6,2684.9,-2438.4,-584
-1137.2,-5237.5,-2293.8,-4402.9,-1753.5,2690,-2434.9,-581.5
-1144.2,-5240.8,-2296.8,-4408.6,-1764.5,2679.8,-2439.5,-591.4
-1156.2,-5250.4,-2308.9,-4422.9,-1782.3,2667.2,-2450,-606.9
-1165.4,-5263.6,-2324.8,-4436.7,-1794.1,2662.2,-2470.2,-615.6
-1168.4,-5269.9,-2324.7,-4440.6,-1799.2,2640.7,-2474.2,-620.3
-1168.9,-5267.1,-2318.3,-4434.7,-1793.3,2629.1,-2466.2,-616.1
-1167.5,-5257.6,-2302.6,-4420.4,-1772.2,2635.7,-2455,-600.1
-1152,-5240.3,-2289.2,-4400.8,-1750.1,2652.9,-2438.2,-582.2
-1141.2,-5227.6,-2283.5,-4395,-1745.6,2662.7,-2430.4,-575
-1140.3,-5222.1,-2286.7,-4397.7,-1749.4,2662.6,-2432.8,-576.9
-1150.1,-5226,-2292.4,-4409,-1763.4,2649.8,-2437,-590.6
-1164.1,-5237.4,-2305.6,-4426.6,-1781.2,2638.7,-2449.1,-607.7
-1169.4,-5257.8,-2314.9,-4438.7,-1789,2635.4,-2463,-615.1
-1169.2,-5265.2,-2314.3,-4440.6,-1793.1,2632,-2465.4,-619.3
-1161.4,-5262.9,-2310.9,-4434.5,-1786.8,2640,-2461.3,-612.9
-1152,-5250.7,-2295.4,-4417.4,-1768.3,2659.3,-2444.9,-593.7
-1140.6,-5232.4,-2285.3,-4400.2,-1752.3,2678.6,-2431.7,-574.5
-1132.9,-5224.9,-2283.8,-4398.6,-1742,2686.7,-2443.9,-569.4
-1135.3,-5229.1,-2285.7,-4403.6,-1742.8,2683.2,-2448.8,-574.3
-1157.7,-5249.4,-2307.4,-4425,-1768.9,2662.7,-2452.7,-598.9
-1182.8,-5260.9,-2328.9,-4445.5,-1788.3,2653.7,-2460.6,-615.2
-1188.6,-5271.3,-2338.8,-4448.3,-1798.5,2647.4,-2473.6,-624.2
-1182.6,-5274.1,-2338.4,-4444.8,-1803.1,2644.7,-2479.1,-628.9
-1169.7,-5269.6,-2328.9,-4434.6,-1792.4,2657.8,-2474.7,-617.7
-1150.6,-5252.8,-2307.5,-4413.6,-1771,2681,-2455.1,-594
-1133.7,-5239.3,-2293.1,-4403.5,-1761.9,2690.5,-2446.8,-581
-1127.8,-5234.3,-2288.2,-4401.2,-1757.6,2682.4,-2434.3,-574.1
-1143.3,-5237.3,-2293,-4410.2,-1765.3,2659,-2436.2,-580.2
-1166.2,-5247.8,-2308,-4428.3,-1777.5,2636.5,-2446.9,-599.7
-1180.7,-5263,-2327.9,-4442.7,-1788.8,2628,-2461.2,-613.1
-1186.4,-5265.4,-2329.5,-4450.1,-1796.7,2621.9,-2470.4,-620.4
-1180,-5259,-2322.1,-4446,-1793.1,2626.1,-2467,-616.8
-1162.3,-5251.5,-2306.6,-4428.3,-1775.1,2646.6,-2454.8,-598.6
-1143.9,-5243,-2291.7,-4408.8,-1758,2666.4,-2436.2,-579.8
-1133.4,-5229.1,-2288.5,-4401,-1752.6,2675.3,-2423.4,-573.9
-1131.7,-5230.8,-2291.1,-4403.7,-1753.1,2679.1,-2424,-573.3
-1146.5,-5242.3,-2302.6,-4415.9,-1768.1,2666.4,-2433.5,-586.6
-1175.9,-5258.2,-2319.6,-4430.6,-1785.7,2651,-2447.8,-604.1
-1189.1,-5270.2,-2328.9,-4442.8,-1787.1,2644.1,-2472.4,-613
-1190.8,-5273,-2326.3,-4442.9,-1785.7,2644.8,-2483.1,-613.1
-1185.3,-5271.9,-2321.8,-4437.3,-1779.3,2652.9,-2459.6,-606.5
-1164.6,-5257.4,-2311.4,-4420.5,-1760.4,2679.7,-2443.6,-584.9
-1147.1,-5242.1,-2301.1,-4403,-1748.3,2697.3,-2430.5,-570.7
-1138.3,-5234,-2295.7,-4396.3,-1746.4,2703.6,-2424.2,-567.2
-1138.5,-5234.3,-2296,-4399.2,-1751.6,2699.9,-2427.7,-571.7
-1150,-5246,-2306.8,-4412.9,-1769.4,2680.9,-2438.2,-589.6
-1168.1,-5267.7,-2326.4,-4437.8,-1788.8,2663.2,-2455.6,-608.2
-1179.6,-5274.1,-2333.6,-4449.3,-1791,2655.6,-2462.7,-610.7
-1182.2,-5272,-2339.1,-4443.6,-1790.9,2638.8,-2455.4,-611.7
-1170.1,-5257.5,-2325,-4428.1,-1775,2642,-2445.9,-596.2
-1144.6,-5243.4,-2296,-4412.5,-1751,2659.8,-2435.6,-579.3
-1132.3,-5236.2,-2280.8,-4406.9,-1752.2,2657.6,-2440.3,-581
-1136,-5217.1,-2276.4,-4408.4,-1753.2,2659,-2438,-580.2
-1140.4,-5219.9,-2283.5,-4408.5,-1763,2649.5,-2443,-588.5
-1156.9,-5245.1,-2301.2,-4426.4,-1785.4,2627.2,-2460.7,-611.4
-1179.8,-5266.3,-2318.7,-4447.7,-1798.7,2621,-2472.7,-624.4
-1187.4,-5266.9,-2325.2,-4450.9,-1801.8,2622.1,-2476.2,-625.6
-1177.7,-5264.2,-2327.5,-4441.6,-1797.2,2631.1,-2477.3,-620.6
-1157.3,-5251.5,-2323.6,-4428.3,-1777.8,2657.8,-2462.6,-599.6
-1145.7,-5237.4,-2298.9,-4410.6,-1760.8,2674,-2445.2,-583.6
-1131.9,-5231.4,-2281.1,-4399.4,-1746.9,2680.2,-2455.5,-576.5
-1123.1,-5224.3,-2272.8,-4393.3,-1749.8,2675.8,-2464.6,-580
-1135.9,-5227.3,-2278,-4402,-1769,2653.8,-2468,-599.4
-1159.9,-5241.4,-2302.3,-4426.8,-1792.7,2636,-2468.3,-620.8
-1167.6,-5252.2,-2327.6,-4439,-1800.8,2638.4,-2477.9,-627.2
-1174.4,-5265.6,-2335.1,-4444.4,-1804.5,2639.1,-2484.8,-630.6
-1169,-5262.4,-2322.1,-4442.5,-1794.4,2653.5,-2475.1,-620.7
-1146.1,-5245.7,-2306.9,-4425.1,-1775,2678.5,-2462.8,-600.4
-1125.5,-5226.9,-2292.5,-4406.1,-1765.7,2691,-2455.9,-588.4
-1117,-5216.9,-2277,-4396,-1761.7,2695.4,-2451.2,-582.6
-1118.2,-5215.7,-2271.1,-4394.6,-1764.2,2677.9,-2444.6,-585.1
-1134.5,-5225.1,-2284.1,-4406.7,-1779.3,2642.1,-2454.1,-602.5
-1160.3,-5240.2,-2301.4,-4422.9,-1788.8,2613.3,-2470.3,-618.9
-1171.9,-5251.7,-2311.4,-4439.4,-1800.1,2609,-2484.4,-629.6
-1170.3,-5253.7,-2310.6,-4442.9,-1803.6,2609.5,-2489.8,-632.1
-1155,-5233.8,-2301.7,-4433.2,-1790.6,2629.7,-2479.2,-617.8
-1131.5,-5214.3,-2287.5,-4415.7,-1766.9,2657.3,-2460.4,-593.6
-1117.8,-5203.3,-2272.1,-4398.7,-1756.9,2665.5,-2444.3,-583.9
-1115.6,-5200.5,-2262.7,-4388,-1753.7,2667.2,-2436.3,-580.5
-1126.9,-5205,-2262.6,-4391.8,-1762.3,2657,-2438.7,-588.4
-1149.5,-5224.9,-2279.8,-4411.7,-1785,2636.2,-2458.4,-609.9
-1167.1,-5242.5,-2297,-4432.3,-1801.7,2625.1,-2475.6,-626.2
-1181,-5249.1,-2314,-4440.9,-1805.4,2623.5,-2486.5,-632.6
-1172.3,-5259.6,-2321.6,-4441.7,-1799.7,2626.3,-2516.5,-634.1
-1153.8,-5250.2,-2312.4,-4426.5,-1782.6,2648.7,-2495.8,-616
-1135.8,-5230.1,-2295.4,-4409.9,-1766.9,2669.2,-2462.8,-598.6
-1126.1,-5216.6,-2279.3,-4401.1,-1760.6,2678.1,-2446.4,-590.4
-1127.5,-5215.8,-2275,-4400.4,-1760.9,2679.5,-2443.9,-590.1
-1140,-5224.6,-2285,-4409.8,-1772.7,2668.8,-2452.8,-600.2
-1158.3,-5242.6,-2303.8,-4429.2,-1795.7,2648.5,-2473.6,-622.3
-1172.3,-5257.6,-2321,-4444.4,-1809.7,2640.5,-2489.3,-636
-1178.4,-5266.6,-2330.7,-4451.7,-1816,2637.6,-2502.8,-639.8
-1167,-5260.5,-2317.6,-4441.9,-1806.6,2631.2,-2494.1,-630.1
-1147.3,-5240.9,-2293.6,-4418.2,-1782.8,2641.7,-2469.3,-605.3
-1139.8,-5219.2,-2267.8,-4399.9,-1762.1,2649.6,-2446.3,-587.3
-1133,-5202.6,-2257.9,-4390.7,-1748.6,2659.4,-2429.7,-577.8
-1132.4,-5200.6,-2265.9,-4394,-1750.9,2661.6,-2431.1,-577.7
-1148.7,-5210.1,-2288.8,-4414.3,-1774.2,2641.8,-2451.4,-599.2
-1166.9,-5227.9,-2302.9,-4435.1,-1797.7,2622.2,-2472.7,-622.1
-1175.8,-5254.8,-2315.8,-4450.2,-1809.4,2614.8,-2492.3,-633.7
-1177.3,-5261.9,-2318.6,-4449,-1813.4,2610.5,-2495.9,-638.8
-1162.8,-5247.9,-2303.6,-4431.1,-1796.9,2626.1,-2481.3,-624
-1139.9,-5228.3,-2287.2,-4411.1,-1772.1,2656.8,-2458.6,-597.3
-1129.6,-5207.9,-2268,-4394.8,-1757.4,2674.7,-2435.7,-580.8
-1130.5,-5197.9,-2260.3,-4388.4,-1745.8,2682.2,-2431.3,-573.9
-1137.3,-5204.9,-2273.5,-4398.5,-1751.2,2677.9,-2457.6,-581.2
-1158.6,-5228.2,-2298.8,-4420.3,-1778.9,2653.1,-2464.3,-607.7
-1173.6,-5250.3,-2317.8,-4441.9,-1797.6,2640,-2478.4,-625.7
-1180.6,-5264.7,-2328,-4452.9,-1807,2635.4,-2493.2,-633.6
-1177.3,-5261.7,-2321.4,-4442.4,-1804.2,2637.9,-2490.5,-631.5
-1156.4,-5243.1,-2300.8,-4422.8,-1784.5,2660.8,-2470.4,-610.9
-1133.2,-5223,-2281,-4405.9,-1762.7,2687.9,-2446.3,-586.5
-1118.9,-5205.5,-2266.1,-4395.1,-1751.2,2703.2,-2428.2,-573.2
-1115.9,-5202.4,-2270.3,-4393.7,-1750.7,2706,-2433.1,-569.4
-1131.1,-5217.1,-2289.3,-4408.5,-1770.3,2671.8,-2446.2,-587.5
-1159.8,-5243,-2306.3,-4430.3,-1799.4,2623.8,-2471.1,-618
-1188.2,-5262.8,-2317.1,-4450.7,-1810.4,2601.1,-2490.5,-636.5
-1196.1,-5271.1,-2325.3,-4455.5,-1811.9,2595.8,-2497.1,-642.2
-1186.6,-5259.5,-2312.3,-4442.3,-1801.6,2605.4,-2484.8,-632.1
-1166.5,-5232.2,-2294.1,-4424.4,-1779.7,2633.5,-2463,-608.9
-1145.5,-5205.7,-2273.8,-4404,-1757,2660.9,-2439.3,-583.6
-1133,-5196.9,-2263.6,-4394.6,-1750,2671.9,-2427.5,-575
-1134.9,-5209.4,-2268.9,-4399.6,-1756.1,2670.2,-2432.8,-579
-1151.8,-5229.4,-2289.7,-4418,-1778.7,2649.5,-2456.3,-600.4
-1170.5,-5252.2,-2311.9,-4440.6,-1804.7,2625,-2480.8,-626.6
-1188.8,-5266.5,-2326.6,-4453.6,-1815.6,2617.1,-2493.7,-637.3
-1191,-5263.2,-2325.9,-4452,-1815.6,2616.9,-2503.4,-635.5
-1173.1,-5237.5,-2303,-4433.5,-1788.6,2635.9,-2493.2,-617.3
-1148.7,-5216.5,-2278.9,-4409.2,-1761.5,2665,-2468.9,-592.5
-1127.6,-5203.7,-2265.6,-4396.5,-1749.5,2682.9,-2436.1,-578.7
-1119.9,-5199.4,-2266.5,-4394.8,-1748.6,2690.3,-2429.6,-575.7
-1130.3,-5217.3,-2282.7,-4404.7,-1762.7,2680.6,-2447.9,-587.4
-1152.7,-5241.7,-2302.4,-4428.3,-1788.8,2656.5,-2470.1,-612.6
-1173.8,-5265.1,-2320,-4449.8,-1809.1,2640,-2490.5,-632.7
-1184.2,-5274.7,-2332.6,-4458.7,-1815.8,2636.5,-2499.9,-638.4
-1180.7,-5264.4,-2328.3,-4451.2,-1807.7,2645.8,-2478.4,-629.4
-1160.7,-5243.5,-2305.1,-4429.8,-1786.3,2663.1,-2457,-607.9
-1132.6,-5217,-2276.8,-4404.7,-1761.3,2673.4,-2440.4,-582.3
-1126.2,-5200.9,-2260.8,-4391.9,-1741.1,2671.1,-2421.9,-568.9
-1130.7,-5203.2,-2257.8,-4392,-1740.1,2668.6,-2422.4,-568.7
-1150.7,-5219.8,-2276.6,-4407.9,-1760,2651.1,-2440,-586.4
-1176.6,-5234.1,-2299.9,-4429.3,-1787.2,2625.9,-2464,-612.9
-1193.9,-5250.8,-2321.3,-4449.4,-1804.4,2614.5,-2484,-629.2
-1192.3,-5254.3,-2328.5,-4455.4,-1806.6,2617.6,-2483.3,-629.7
-1175.4,-5247.2,-2315.3,-4441.1,-1792.6,2633.8,-2467.7,-616.2
-1151,-5228.9,-2291.6,-4420.5,-1770.3,2658.1,-2447.8,-594.1
-1126.1,-5210.5,-2269.8,-4401.6,-1753.4,2678.2,-2429.4,-576.4
-1126,-5210.4,-2267.4,-4393.3,-1754.1,2678.6,-2428.7,-576.5
-1135.6,-5219.4,-2273.3,-4398.4,-1761.5,2670.1,-2453.7,-581.9
-1156.9,-5237.2,-2293.5,-4421.9,-1774.9,2650.1,-2479.7,-603.2
-1180,-5261.1,-2318.2,-4447.9,-1798.9,2628.7,-2496.7,-628.6
-1194.6,-5276.3,-2337.8,-4467.7,-1812,2623.5,-2496.4,-640.2
-1192,-5267.2,-2335.3,-4463.4,-1808,2634.9,-2487.4,-633.5
-1173.6,-5251.8,-2315.5,-4440.9,-1793.5,2651.6,-2471.7,-619.5
-1147.5,-5232.8,-2293.1,-4412.9,-1769.5,2679.6,-2451.1,-595
-1126.5,-5218.5,-2276.2,-4396.8,-1755.9,2696.1,-2436.2,-580
-1123.5,-5216.6,-2266.6,-4392.2,-1756.1,2695.1,-2433.2,-578.9
-1136.4,-5231.6,-2279.7,-4406.7,-1771,2682.4,-2449.4,-590.9
-1157.8,-5248.1,-2302.4,-4430.1,-1793.5,2651.6,-2472.7,-612
-1180.2,-5261.9,-2320.2,-4449.9,-1809.1,2620.6,-2480.8,-629.4
-1193.5,-5265.3,-2328.4,-4454.5,-1801.3,2610.2,-2484.3,-629.4
-1185.4,-5254.2,-2320.9,-4446.2,-1794.6,2618.3,-2474.3,-624.1
-1165.9,-5230.9,-2301.5,-4427.3,-1777.7,2636.9,-2457.7,-606.7
-1142.6,-5214.1,-2278.7,-4408,-1755.7,2663.4,-2439.3,-582.5
-1129.2,-5208.3,-2259.4,-4396.3,-1747.1,2672.4,-2422.6,-573.1
-1131.5,-5218.7,-2257.9,-4397.3,-1751.5,2667.2,-2424.4,-577.1
-1145.3,-5237.3,-2278.8,-4414.7,-1768.6,2653.5,-2442.2,-592.1
-1165,-5252.2,-2305.9,-4435.4,-1793.5,2633.1,-2462.1,-615.5
-1181.9,-5264.1,-2325.8,-4450.4,-1810.7,2623.5,-2482.8,-631.5
-1189.9,-5259.7,-2330.3,-4450.5,-1812.4,2627,-2485.4,-631.1
-1176.7,-5246.2,-2316.6,-4439.1,-1795.2,2642.8,-2490.5,-616
-1155,-5230.2,-2296.9,-4419.2,-1763.8,2669.6,-2462,-593.4
-1137.4,-5210.9,-2276.5,-4397.9,-1749,2686.7,-2431.1,-577.7
-1130.9,-5197.7,-2263.3,-4386.4,-1746.7,2691,-2421.5,-573.1
-1137.3,-5209.5,-2276.7,-4394,-1755.2,2684.4,-2435.3,-580.1
-1154.9,-5230.7,-2295,-4413,-1774.6,2668.8,-2453.4,-598.1
-1179.5,-5253,-2318,-4438.3,-1799.3,2650.4,-2473.4,-622.2
-1188.1,-5260.5,-2335.5,-4453.5,-1809.2,2648.4,-2480.1,-631.3
-1184,-5262,-2336.3,-4455.6,-1811.4,2649.2,-2468.2,-631.9
-1164,-5253.3,-2315.3,-4438.9,-1800.1,2642.7,-2475.5,-621.8
-1146.8,-5231.7,-2290.7,-4415.1,-1772,2650,-2456.4,-598.6
-1139.7,-5209.1,-2268.4,-4394.4,-1749.4,2655.7,-2433,-580.3
-1141.4,-5207.8,-2267.6,-4396.8,-1751.3,2656.9,-2430.3,-580.9
-1153.1,-5216.4,-2279.8,-4411.8,-1764.4,2646.6,-2442.7,-592
-1175.3,-5228.8,-2301.4,-4433.3,-1784.7,2629.5,-2460.7,-610.3
-1194.3,-5248.9,-2324.9,-4452,-1805.6,2614,-2480.3,-630.4
-1198.1,-5262.6,-2330.8,-4455.7,-1810.3,2613.4,-2487.3,-634.9
-1190.4,-5255.8,-2320.1,-4447.5,-1805.4,2618.3,-2479.2,-630.9
-1170.2,-5238.8,-2304.5,-4429.3,-1788.5,2637.4,-2460.7,-614.1
-1143,-5220.6,-2283.1,-4408.1,-1765.2,2665.2,-2438.7,-589.2
-1134.3,-5204.6,-2268.3,-4396.4,-1756.2,2678.3,-2424.2,-577.7
-1144.9,-5203.5,-2272.5,-4397.2,-1751.7,2677.1,-2429.6,-577.9
-1157,-5216.7,-2283,-4407.6,-1759.8,2665.3,-2461.1,-589.2
-1177.9,-5244.9,-2311.4,-4433.8,-1787.9,2641.6,-2473.8,-616.1
-1192.5,-5263.2,-2327.8,-4449.4,-1806.7,2627.6,-2487.9,-635.3
-1192.2,-5265.5,-2328.1,-4449.8,-1808.3,2630.1,-2492.3,-636.4
-1182.9,-5255.2,-2319.5,-4440.1,-1800.4,2641.4,-2481.5,-628.2
-1160,-5234.2,-2297,-4420.2,-1779.2,2665.9,-2457.9,-606.7
-1135.9,-5213,-2277.8,-4400.3,-1757.7,2693,-2436,-583.5
-1128.9,-5204.1,-2277.7,-4397.7,-1753.1,2704.5,-2426.9,-576.3
-1134.1,-5208.9,-2282,-4403.3,-1758.3,2698.1,-2439.4,-579.1
-1150.3,-5226.8,-2296.6,-4419.2,-1777.1,2662.1,-2454.9,-596.6
-1176.8,-5245.6,-2314.9,-4439.1,-1794.3,2620.2,-2474.6,-620.8
-1195,-5257.5,-2321.2,-4448.8,-1801.5,2605.1,-2486,-631.2
-1193.3,-5255.9,-2315,-4444.7,-1798.3,2611.2,-2481,-627.2
-1179.5,-5235.9,-2301.8,-4429.6,-1786.8,2626,-2465.5,-615.1
-1153.4,-5207.9,-2282.2,-4408.4,-1765,2652.6,-2442.1,-592.3
-1132.1,-5189,-2266.9,-4394.4,-1748.5,2675.2,-2421.5,-572.8
-1132,-5194.5,-2266.8,-4395.4,-1748.8,2680.4,-2418.3,-571.3
-1145.1,-5208.2,-2275.7,-4404.3,-1758.1,2672,-2430.9,-580.2
-1167.6,-5231.7,-2299.5,-4426.3,-1783.2,2647.4,-2456.7,-605.5
-1194.7,-5261.1,-2326.9,-4447.9,-1809.3,2623.5,-2486.4,-632.3
-1202.1,-5267.4,-2334.2,-4455.6,-1815.8,2617.2,-2503.8,-637.6
-1191.7,-5255,-2327.3,-4450.4,-1801.8,2626.7,-2504.5,-631.5
-1173.3,-5238.3,-2309.5,-4431.2,-1783.1,2647.8,-2483.8,-614.5
-1152.5,-5219.9,-2287.5,-4412.2,-1763.9,2674.9,-2444.5,-592.6
-1143.2,-5205.5,-2278.7,-4403,-1754.2,2692.1,-2425.6,-578.7
-1143.4,-5211.6,-2285.3,-4402.4,-1756.3,2693.2,-2431.3,-579.2
-1155.1,-5230,-2298.4,-4416.7,-1771.8,2679.6,-2450.4,-593.4
-1177,-5252.9,-2319.4,-4438.1,-1798.1,2655,-2477.2,-619.3
-1193.4,-5271.8,-2334.1,-4455,-1816.7,2638.7,-2498.2,-637.8
-1190,-5270.8,-2330.9,-4456.2,-1815.1,2635,-2499.8,-634.4
-1179.6,-5256.7,-2319.4,-4447.7,-1806,2629.1,-2475.5,-624.7
-1165.4,-5225.2,-2289.9,-4422.7,-1777.6,2641.2,-2443.1,-597.1
-1146.7,-5204.4,-2269.2,-4402.2,-1748.3,2664.7,-2422.9,-575
-1141,-5199.9,-2268.9,-4397.4,-1745.5,2670.8,-2420.7,-571
-1146.9,-5202.4,-2279.1,-4404.5,-1753.7,2666.2,-2431.9,-577.9
-1163.9,-5223.2,-2300.9,-4422.2,-1774,2648.5,-2455.8,-596.7
-1187.9,-5251.3,-2325,-4445.8,-1800.2,2623.7,-2481.5,-622.3
-1194.3,-5266.9,-2330.7,-4455.6,-1808.4,2618.8,-2486.5,-631.2
-1188.6,-5264,-2327,-4454.2,-1805.5,2625,-2480.9,-627.3
-1173.1,-5241.9,-2310.7,-4437.9,-1790.9,2642,-2458,-612.6
-1159.5,-5217.3,-2289.7,-4412.8,-1766.1,2670,-2433.1,-586.7
-1142.1,-5203.6,-2271.2,-4395.4,-1746.6,2688.7,-2436,-568.4
-1140.8,-5204.5,-2272.9,-4398.7,-1740.8,2689.2,-2433.4,-570.8
-1151.1,-5221.3,-2289.6,-4409.4,-1752.8,2680.8,-2437.8,-581.9
-1170.3,-5243.3,-2306.8,-4429.1,-1777,2658.8,-2463.6,-604.2
-1190.8,-5257.9,-2324.3,-4448.2,-1799.2,2641.6,-2480.7,-625.3
-1191.8,-5263.7,-2333.9,-4452.9,-1803.3,2644.4,-2484.9,-628.5
-1182.1,-5254.1,-2326.1,-4447,-1798.6,2651.9,-2471.7,-623.3
-1163.2,-5233.2,-2305.8,-4429.1,-1781.7,2671.2,-2450.6,-604.9
-1141,-5215.5,-2282.4,-4407.3,-1759.6,2695.7,-2435.9,-580.9
-1128.1,-5208.1,-2266.4,-4395.3,-1752.5,2690.6,-2431.3,-572.5
-1132,-5220.9,-2273.7,-4403.1,-1761.5,2666,-2441.2,-584.1
-1161.1,-5234.7,-2291.4,-4417.2,-1768.1,2640.7,-2456.4,-595.8
-1186.2,-5250.9,-2315.6,-4439.6,-1792.3,2619.6,-2477.1,-618.2
-1195.8,-5256.3,-2338.6,-4456.1,-1807.7,2612.5,-2488.5,-631.7
-1196.8,-5257.1,-2341,-4458.7,-1807.4,2616.2,-2488.5,-631.3
-1189.1,-5242.3,-2319.5,-4447.8,-1797.4,2626.6,-2469.7,-621.5
-1164.4,-5229,-2293.4,-4423.3,-1778.1,2646.9,-2448.9,-603.3
-1140.7,-5220.1,-2270.1,-4399.4,-1758.7,2666.7,-2433,-583.4
-1135.3,-5221.7,-2268.3,-4397.4,-1757,2672.7,-2430.3,-578.9
-1147.8,-5233.8,-2280.6,-4409.4,-1764.3,2670.3,-2437.7,-584.2
-1171.7,-5251.6,-2303.7,-4428.3,-1772.2,2658.8,-2456.9,-596.3
-1188.5,-5265.5,-2327.1,-4448.2,-1787.9,2642.1,-2492.9,-616
-1196.5,-5265.2,-2336.6,-4455.1,-1797.9,2638.2,-2483,-625.1
-1190.9,-5257.8,-2330.8,-4449.7,-1797.2,2642.5,-2476.3,-624
-1174.8,-5239.1,-2314.6,-4434.3,-1788.6,2653.6,-2464,-614.9
-1155.7,-5217.2,-2291.3,-4408,-1770.2,2672.6,-2447.2,-597.2
-1143.6,-5209.8,-2278,-4392,-1758.4,2687,-2440.1,-584.8
-1142.5,-5213,-2281.6,-4394.5,-1760.2,2690.3,-2442,-584.5
-1151.1,-5227,-2294.7,-4407.3,-1770.9,2684.9,-2449.6,-591.1
-1168.3,-5249.1,-2317.2,-4429.7,-1791.7,2665.7,-2461.1,-609.3
-1185.1,-5253.8,-2328.7,-4440.7,-1802.8,2641.2,-2478.7,-619.7
-1195.9,-5249.2,-2328.9,-4443.7,-1798.4,2624.4,-2475.9,-622.7
-1189.4,-5238.6,-2319.6,-4433.8,-1789.8,2621.8,-2468.7,-617.8
-1176.5,-5214.1,-2302,-4413.5,-1778.6,2632.2,-2455.1,-607.2
-1157,-5188.7,-2279.5,-4393,-1761.4,2650.7,-2440.2,-590.7
-1146,-5184.1,-2270,-4387.8,-1753.9,2662.5,-2436.7,-581.9
-1148.3,-5188.6,-2275.8,-4392,-1757.3,2664.2,-2439.9,-584
-1162.5,-5211.8,-2294.8,-4407.2,-1768.8,2657,-2454.2,-593.7
-1179.6,-5226.8,-2312.4,-4425.1,-1788.6,2640.1,-2468.7,-611
-1190.1,-5230.6,-2325.3,-4435.3,-1803.3,2629.8,-2475.7,-624.9
-1200.5,-5228.9,-2327.8,-4434.8,-1804.1,2632.1,-2474.7,-626.1
-1196.4,-5222.2,-2313.1,-4425.4,-1788.7,2638.2,-2473.7,-619
-1179.3,-5217.9,-2296.8,-4410.6,-1774.9,2649.8,-2474.4,-608.9
-1167.4,-5212.6,-2291.1,-4399.3,-1761.4,2668.8,-2448.5,-593
-1160,-5208.6,-2289,-4395.4,-1759.7,2677.7,-2443.1,-587.2
-1163.8,-5216.8,-2300.2,-4403.9,-1769.7,2674.8,-2455.5,-594.6
-1177,-5231.2,-2315.8,-4416.8,-1785.4,2663.8,-2473.3,-608.4
-1192.6,-5240.4,-2327.2,-4430.8,-1801.6,2647.7,-2482,-623.8
-1197.7,-5247.3,-2333.7,-4440,-1811.8,2642.5,-2489.3,-633
-1193.7,-5244.5,-2327.8,-4437.8,-1811.1,2646.4,-2477.1,-630.3
-1182.4,-5233.3,-2311.4,-4425.4,-1803.4,2646.7,-2467.5,-623.5
-1161.6,-5215.1,-2291.4,-4407,-1783,2651.5,-2458.5,-603.9
-1157.4,-5203.2,-2274.9,-4394,-1761.3,2651.1,-2446.2,-589.6
-1157.8,-5202.8,-2269.7,-4393.6,-1761,2650.8,-2444.9,-588.4
-1166.1,-5202.8,-2279.6,-4400.9,-1768.8,2647.1,-2454.3,-593.4
-1178.7,-5214.3,-2291.3,-4412.1,-1785,2631.7,-2469.5,-608.7
-1190.1,-5226.6,-2303.5,-4428.3,-1802.3,2615.3,-2482.9,-626.4
-1193,-5232,-2312.7,-4437.1,-1807.4,2616.9,-2487,-630.9
-1187,-5233.1,-2309.5,-4430.8,-1803,2623,-2481,-627.2
-1177,-5218.9,-2297.1,-4417,-1792,2636.2,-2464.6,-616.5
-1165.8,-5207.9,-2285,-4404.1,-1776.2,2658.7,-2450.3,-598.8
-1165.4,-5198.4,-2275.6,-4391.5,-1763.5,2670.2,-2440.8,-587.9
-1162.7,-5199.2,-2274.5,-4392.2,-1755.9,2671,-2458.7,-586.3
-1169.2,-5211.3,-2281.6,-4402.6,-1763.3,2665.5,-2477.3,-592.7
-1183.2,-5229,-2294.5,-4413.5,-1780.8,2647.2,-2485.6,-609.9
-1196.4,-5242.1,-2312.4,-4427.7,-1799.1,2635.1,-2482.3,-626.9
-1197.4,-5242,-2318,-4430.6,-1800.8,2641,-2482.5,-628
-1189.3,-5231.4,-2312.9,-4422.2,-1795.7,2650.4,-2471.2,-621.9
-1173.6,-5215.4,-2303.9,-4409.6,-1782.5,2669.2,-2454.4,-608.3
-1159.2,-5207.9,-2293.9,-4399.3,-1771.4,2685.1,-2447,-595.8
-1148.2,-5200.5,-2280.4,-4390.4,-1765.4,2693.4,-2441.7,-586.3
-1150.4,-5204,-2279.7,-4393,-1769.4,2678.7,-2450.3,-587.7
-1162.5,-5217.6,-2283.5,-4401,-1778.7,2652.5,-2458.3,-597.1
-1184.7,-5229.2,-2287.8,-4412.7,-1792,2618.7,-2470,-613.9
-1198.2,-5246.3,-2309.1,-4430.2,-1803.4,2604.1,-2487.8,-634
-1199,-5241.9,-2314.5,-4432.3,-1802.9,2609.9,-2484.3,-632.5
-1191.9,-5221.8,-2309.5,-4426,-1796.5,2619.8,-2470.1,-625.9
-1180.3,-5208.4,-2303.2,-4416.9,-1784.6,2636.8,-2456.1,-613.5
-1168.3,-5206.7,-2291.9,-4405.4,-1769.9,2655.8,-2447,-597.1
-1162.6,-5208,-2279.2,-4398.8,-1766,2661.7,-2441.1,-590.5
-1165.7,-5218.9,-2281,-4402.9,-1772.4,2657,-2451.9,-595.6
-1173.5,-5232.2,-2291.3,-4414.4,-1784.7,2645.3,-2466.4,-606.4
-1187.1,-5240.9,-2309,-4428.6,-1802.9,2629.5,-2476.9,-623.9
-1202.4,-5244.8,-2316.9,-4435.2,-1806.4,2626.8,-2484.3,-629.7
-1195.9,-5236.1,-2312.1,-4431,-1795.2,2635.5,-2494.8,-623.4
-1187.5,-5224.5,-2306.5,-4422.9,-1788.8,2645.9,-2470.5,-616
-1175.2,-5216,-2299,-4414.8,-1774.3,2667.4,-2448.5,-598.7
-1164.6,-5209.2,-2287.5,-4400.6,-1762.1,2684.7,-2440.7,-584.1
-1166.7,-5211.6,-2286.1,-4399.5,-1765.6,2683.9,-2446.9,-587
-1169.6,-5221.1,-2293.1,-4404.1,-1772.7,2679,-2458.8,-594.3
-1178.5,-5233.8,-2306.7,-4416,-1789.2,2664.5,-2473.8,-609
-1192.9,-5244.3,-2319,-4430.7,-1806.1,2649.1,-2480.2,-624.5
-1197.7,-5246.9,-2324.7,-4437.2,-1809.9,2648.7,-2468.6,-627.4
-1189.7,-5231.1,-2307.4,-4422.7,-1800.3,2629,-2468.8,-618.1
-1188.1,-5215.2,-2290.9,-4405.9,-1782.8,2627,-2454.9,-607.2
-1172.6,-5203.9,-2280.1,-4393,-1763.5,2645.6,-2445.6,-592.1
-1164.1,-5196.5,-2271.3,-4387.2,-1758.4,2655.4,-2444.3,-584.4
-1168,-5197.8,-2275.6,-4394.3,-1764.8,2653.4,-2451.2,-588.8
-1172.9,-5208.7,-2286.5,-4404.2,-1773,2649.7,-2462.1,-595
-1181,-5226.2,-2295.5,-4415,-1787.2,2636.3,-2471.5,-608.6
-1188.5,-5235.9,-2304.3,-4425.7,-1800.7,2625.6,-2477.5,-622.4
-1186.1,-5234.3,-2306.8,-4426.9,-1800.7,2630.9,-2474.3,-621.2
-1177.9,-5223.4,-2299.4,-4418.3,-1795.7,2636.8,-2462,-615.1
-1173.6,-5209.9,-2290.3,-4406.9,-1784.2,2649,-2450.2,-604.8
-1166.3,-5199.1,-2278.2,-4394.7,-1761.5,2667.2,-2449,-589.2
-1162.3,-5199.2,-2274.7,-4388.3,-1756.2,2672.2,-2465.8,-586.5
-1170,-5219.2,-2294.8,-4398.4,-1770.3,2664.4,-2468.6,-598.9
-1179.8,-5230.2,-2311.7,-4412.8,-1781.8,2659.9,-2475.2,-606.7
-1192.1,-5238.8,-2319.9,-4426.1,-1797.8,2646.2,-2483.7,-621.4
-1198,-5243.2,-2324.8,-4432.3,-1807.5,2641.9,-2488.9,-631
-1195.4,-5240.5,-2320.3,-4431.6,-1806,2645.8,-2483.7,-628.9
-1191.4,-5228.6,-2304.8,-4421.6,-1801.1,2647.6,-2472.4,-624.3
-1175.1,-5218.1,-2290.6,-4409.1,-1788.6,2663.5,-2463.3,-610.6
-1158.6,-5213.4,-2281.5,-4401.5,-1775.9,2678.1,-2463.6,-595.6
-1160.7,-5217.1,-2282.2,-4401.2,-1775.3,2665.2,-2458.1,-593.7
-1177.1,-5224.5,-2293.2,-4405.4,-1769.3,2649.7,-2459.8,-594.1
-1187.6,-5231.8,-2298.4,-4413.1,-1775.9,2637.3,-2462.7,-601.5
-1200.5,-5233.4,-2307.3,-4426.8,-1793.5,2620,-2472.9,-618.1
-1199.9,-5224.5,-2308.4,-4430.8,-1798.2,2619.4,-2470.4,-621.5
-1190.7,-5217.6,-2299.7,-4424.4,-1798.4,2619.3,-2467.9,-622.1
-1179.5,-5215.8,-2290.1,-4413.9,-1792.8,2624.1,-2464.2,-618.4
-1163.8,-5206.9,-2283.8,-4402.4,-1777.3,2645.6,-2456.9,-602.4
-1158,-5206,-2283.1,-4399.5,-1770.7,2658.6,-2455.6,-594.1
-1161.2,-5210.4,-2289,-4405,-1776,2659.7,-2460.6,-596.7
-1173.5,-5211.5,-2298.3,-4407.7,-1777.5,2660.8,-2463,-598
-1186.8,-5214.8,-2304.5,-4414.7,-1781.1,2646.7,-2482.5,-609.2
-1199.2,-5215.1,-2310,-4417.7,-1790.1,2637.3,-2488.8,-619.4
-1203.6,-5215.7,-2311.7,-4419.2,-1792.5,2638.5,-2472.2,-621.7
-1201.6,-5213.1,-2306.3,-4417.9,-1793.6,2640.4,-2467.7,-621.9
-1191.2,-5209.7,-2300.4,-4410.1,-1785.9,2652,-2464,-613.7
-1177.4,-5202.9,-2294.6,-4396.5,-1771.9,2673.3,-2457.2,-597.6
-1171,-5198.4,-2294.4,-4393.3,-1769.2,2683.1,-2457.1,-591.8
-1170.3,-5200.1,-2296.9,-4397.7,-1774.2,2683.5,-2462.6,-594.7
-1173.7,-5201.9,-2299.5,-4403.5,-1781,2678.2,-2467,-600
-1184.5,-5203.7,-2302.9,-4412.4,-1795.1,2652.5,-2475.7,-611.8
-1192.2,-5201.2,-2302.6,-4414.6,-1803.1,2630.5,-2470.7,-619.7
-1200,-5195.7,-2293.8,-4410,-1800.1,2616.2,-2468.1,-619.1
-1202.2,-5199.2,-2293.5,-4408.5,-1793.3,2615.1,-2471.2,-620.6
-1194.2,-5201.7,-2299.1,-4402,-1786.8,2625.1,-2472.1,-614.7
-1186.7,-5192.6,-2301.2,-4398.3,-1777.2,2641.5,-2467.5,-602.2
-1184.8,-5191.3,-2298.9,-4400.9,-1777.1,2645.8,-2465.7,-600.4
-1181.1,-5198,-2294.6,-4402.5,-1778.8,2646.4,-2466.3,-601.8
-1191,-5206.3,-2299.1,-4410.1,-1787.4,2639.1,-2469.9,-609.6
-1202.4,-5206.4,-2303.3,-4419.5,-1799.8,2626.8,-2471.5,-621.3
-1203,-5208.6,-2305,-4422.6,-1805.6,2625.2,-2474.8,-627.3
-1197.1,-5208.4,-2310.9,-4421.6,-1805.6,2629.4,-2476.3,-627.3
-1200.9,-5205.7,-2308.4,-4416.9,-1800.5,2630.9,-2476.2,-627
-1188.9,-5200,-2298.3,-4404.1,-1779.2,2646.8,-2488.5,-612.7
-1180.4,-5198.1,-2293.8,-4396.6,-1771.3,2661.2,-2478.3,-602.1
-1180.3,-5200.7,-2292.6,-4398.7,-1774.4,2661.7,-2466,-603.3
-1181,-5197.8,-2290.2,-4398.6,-1772.8,2667.4,-2461.1,-598.4
-1187.3,-5202.9,-2299.7,-4405.1,-1784,2660.3,-2466.6,-607
-1195.3,-5209.6,-2307.8,-4413.2,-1798.4,2648.5,-2474,-620.8
-1196.1,-5212.5,-2313.8,-4419.6,-1802.4,2651.9,-2477.7,-623.6
-1196.5,-5214.7,-2320.6,-4423.5,-1806.9,2652.6,-2481.8,-626.5
-1192.8,-5213.2,-2316.4,-4418.8,-1804.9,2653.5,-2466.1,-624.7
-1182.9,-5202.5,-2300.2,-4404.2,-1790.1,2655.3,-2468.9,-609.2
-1184.1,-5195.2,-2289.2,-4394.3,-1777.6,2650.9,-2462.7,-599.2
-1179.2,-5187.4,-2279.7,-4386.4,-1766.4,2642.1,-2455.6,-594
-1180.3,-5185.1,-2282.2,-4389.9,-1768.9,2642.9,-2458,-594.8
-1189.1,-5186.3,-2292.4,-4402.4,-1784.4,2630.2,-2466.5,-608.9
-1197.9,-5191.7,-2302.2,-4412.5,-1796.8,2622.7,-2471.6,-621
-1201.1,-5192.8,-2309.5,-4419,-1799.3,2627.5,-2472.9,-622.5
-1201.9,-5200.5,-2312.4,-4421.4,-1801.9,2627.6,-2473.2,-624.7
-1191.8,-5199.5,-2303.6,-4412.3,-1792.1,2637.3,-2466.6,-615.7
-1181.2,-5195.7,-2292.3,-4402.8,-1781,2651.2,-2461.3,-603.3
-1180,-5191.1,-2277.1,-4393.1,-1775,2656.6,-2453.5,-596.6
-1180.9,-5185,-2273.3,-4384.8,-1763.5,2662.5,-2452.2,-590.6
-1180.3,-5187.6,-2281.3,-4390.3,-1764,2660.8,-2474.2,-593.9
-1188.1,-5198.3,-2294.8,-4402.4,-1779.3,2648.3,-2483.8,-608.7
-1197.5,-5217.4,-2314.6,-4419.7,-1798.6,2638.1,-2484.6,-626.4
-1204.3,-5224.6,-2325.4,-4433.1,-1807.9,2638.3,-2484.4,-631.9
-1205.4,-5226.3,-2322.9,-4428.6,-1807.6,2640.3,-2484.1,-631.2
-1197.7,-5220.9,-2313.8,-4417.6,-1797.9,2652,-2478.4,-622.1
-1189.4,-5213.6,-2303.9,-4406.5,-1786.9,2666.7,-2471.7,-608.9
-1182.4,-5204,-2292.7,-4397.2,-1779.1,2676.1,-2461.3,-598.7
-1177.5,-5201.6,-2288.3,-4395.4,-1776.9,2677.8,-2463.3,-593.8
-1179.5,-5206.7,-2291.4,-4403.1,-1784.4,2655.1,-2461.6,-598.7
-1194.7,-5211.4,-2299.4,-4413.3,-1798.7,2626.4,-2465.6,-611.9
-1210.6,-5217,-2307.3,-4422.4,-1800.4,2617.5,-2471.8,-619.3
-1214,-5223.2,-2318.4,-4429.2,-1801.7,2617.8,-2476.8,-622.4
-1209.9,-5215.9,-2317.4,-4429.2,-1799.4,2623.7,-2473.4,-619.2
-1199.8,-5206.8,-2305.8,-4418,-1784.5,2640,-2466.6,-604.1
-1188.9,-5196.8,-2291.1,-4402.5,-1771.8,2654,-2454.7,-591.6
-1179.9,-5194.7,-2281.2,-4393.9,-1766,2661.3,-2444.2,-586.5
-1179.6,-5199.4,-2285.5,-4399.1,-1769.9,2661.3,-2446.7,-588.8
-1188.3,-5205.3,-2294.4,-4413.4,-1783,2650.1,-2452.2,-600.8
-1197.9,-5213.7,-2305.6,-4427.4,-1797.8,2638,-2459.2,-615.9
-1210.3,-5220.9,-2313,-4432.7,-1802.6,2635.9,-2478.5,-619.2
-1214.6,-5221.7,-2315.6,-4430.7,-1796.7,2635.4,-2493.5,-621.2
-1206.6,-5216,-2312.7,-4418.5,-1786.2,2645.1,-2485.8,-614.2
-1195.5,-5210.4,-2307.9,-4407,-1774.8,2663,-2461.5,-600.6
-1181.7,-5202.3,-2298.6,-4398.9,-1766.9,2677.5,-2450.5,-589.5
-1175,-5199.9,-2292.3,-4395.7,-1764.8,2683,-2447.3,-585.7
-1178.9,-5202.2,-2293.5,-4396.3,-1769.9,2680.8,-2448.9,-589.3
-1190.4,-5209,-2302.1,-4406.4,-1784,2668.1,-2456.4,-602.9
-1203.4,-5217.2,-2310.4,-4416.8,-1795.8,2658.2,-2464.7,-615.6
-1212.6,-5226.6,-2321.2,-4428.9,-1806,2651.6,-2466.4,-623.8
-1208.4,-5225.4,-2317.8,-4429,-1804.9,2647.2,-2464.4,-622.2
-1193.7,-5215.6,-2303.1,-4415.7,-1790.4,2644.8,-2463.3,-609.2
-1186,-5203.5,-2292.8,-4401.2,-1765,2648.9,-2451.1,-592
-1178.2,-5195.2,-2285.5,-4393.4,-1758.1,2656.2,-2443.5,-584.7
-1177,-5196.9,-2287.1,-4394.6,-1764.2,2652.4,-2452.8,-590.5
-1185.6,-5198.3,-2294.1,-4404.2,-1775.7,2642.3,-2458.5,-601
-1198.6,-5204.8,-2302,-4416.7,-1791.3,2626.6,-2464.1,-616.1
-1212.9,-5221.4,-2310.3,-4429.9,-1805.3,2614.8,-2475.6,-630.5
-1219.9,-5225.5,-2316.5,-4438.1,-1811.7,2613.4,-2480.2,-636
-1217.2,-5220.3,-2311.2,-4434.3,-1807,2620.9,-2475.4,-630.3
-1202.9,-5211.6,-2302.2,-4422.4,-1792.1,2640.7,-2468.4,-615
-1192.5,-5199.9,-2299.9,-4410,-1773.8,2663.9,-2454.8,-596.2
-1180.1,-5194.6,-2292.9,-4400.5,-1758.5,2672.4,-2465.3,-588.2
-1179.5,-5196.1,-2289.9,-4396.4,-1760.6,2670.5,-2466.5,-590.1
-1189.5,-5203.6,-2295.2,-4404,-1775.1,2657.7,-2458.7,-603
-1204.3,-5213.2,-2300.3,-4414.9,-1795.5,2638.5,-2469.7,-622.5
-1215.1,-5221,-2308,-4424.2,-1806.9,2631.1,-2479.8,-632.6
-1214.8,-5223.1,-2314.1,-4424.9,-1808.4,2635.6,-2482.9,-633
-1205.1,-5222.6,-2312.9,-4422.8,-1802.8,2645.7,-2481.6,-627.1
-1186.4,-5216.4,-2305.5,-4412.7,-1786,2669.9,-2473.7,-608.2
-1171.5,-5206.2,-2297.3,-4403.2,-1775.6,2686.7,-2466.7,-595
-1167.8,-5195.5,-2286.3,-4395.1,-1770.5,2678.3,-2458.8,-588.9
-1175.3,-5194.8,-2284.6,-4392.8,-1769.2,2658.7,-2452.6,-590.4
-1197,-5196.3,-2283.3,-4398.9,-1775,2626.9,-2455.4,-604.7
-1210.9,-5204.6,-2295.8,-4411.6,-1791.3,2611.8,-2464.4,-620.8
-1216.7,-5212.1,-2308.2,-4422.3,-1798.5,2610.6,-2475.3,-626.5
-1215.7,-5209,-2313.8,-4428.7,-1800.6,2613.2,-2478.2,-627.9
-1202.1,-5206.3,-2312.5,-4423.3,-1790.2,2629.1,-2473.3,-616.7
-1185.6,-5196.3,-2302.5,-4410.7,-1775.1,2651.2,-2463.8,-599.3
-1172.7,-5186.3,-2286.6,-4398.1,-1766.2,2662.9,-2449,-589.6
-1168.6,-5187.7,-2276,-4393.1,-1762.6,2666.8,-2443,-586
-1176.1,-5188.4,-2272.4,-4398.1,-1769.6,2658.6,-2443.9,-592.3
-1194.9,-5194.8,-2286.1,-4409.4,-1785.9,2642.3,-2448.3,-607.5
-1218.1,-5207.3,-2302.5,-4421.8,-1794.6,2633.7,-2465.5,-619.7
-1216.4,-5214.2,-2311.7,-4424,-1792,2633.4,-2494.1,-622.7
-1211,-5221.3,-2320.2,-4424,-1795.8,2633.7,-2490,-626.4
-1199.1,-5226.4,-2322.1,-4421.3,-1790.4,2646.2,-2483.9,-620.6
-1183.5,-5213.1,-2307.3,-4407.5,-1777.6,2664.8,-2471.1,-605.4
-1176.5,-5200.2,-2296.4,-4397.2,-1772.1,2674.2,-2459.3,-598.2
-1175.3,-5196.4,-2292.5,-4394.1,-1771.6,2677.2,-2454.6,-596.9
-1185.1,-5200.6,-2297,-4404.7,-1782.4,2667.5,-2459.4,-605.7
-1201.3,-5209.2,-2311.6,-4420.2,-1798.3,2654.5,-2466.7,-618.6
-1212.5,-5226.2,-2325.6,-4436.1,-1812.8,2643.5,-2470.7,-632.6
-1212.3,-5228.5,-2325.6,-4435.9,-1813.7,2628.6,-2487.9,-632.9
-1206.6,-5225.5,-2322.2,-4428.5,-1802.8,2618.6,-2486.6,-628.2
-1200,-5216.4,-2311,-4414.8,-1782,2628,-2474.5,-611.5
-1184.5,-5197.5,-2293,-4400.7,-1766.7,2647.9,-2457.1,-593.9
-1180.6,-5183.2,-2284.6,-4395.5,-1762.8,2653.4,-2445.9,-588.9
-1182.1,-5175.8,-2280.5,-4395.5,-1760.6,2656,-2436.8,-585.5
-1194.8,-5185.4,-2293,-4408.8,-1775.5,2645.2,-2442.9,-598.6
-1211.5,-5211.1,-2314,-4428,-1793.1,2634.6,-2456.5,-614.4
-1222.5,-5228.7,-2324.9,-4436.8,-1801.9,2628.6,-2468.3,-623.8
-1225.5,-5236.9,-2327.8,-4438,-1807.7,2622.8,-2476.1,-631.1
-1221,-5234.5,-2320.9,-4430.2,-1799.7,2631.3,-2471.6,-624.2
-1201.5,-5219.4,-2296.6,-4409.6,-1772.2,2651.9,-2464.7,-603.2
-1178.5,-5201.3,-2282.6,-4393.4,-1757.4,2668.9,-2467.2,-589.3
-1169.2,-5193.1,-2279.9,-4388.2,-1754.1,2677,-2441.8,-583.9
-1169.5,-5194.8,-2284.8,-4393.7,-1759.7,2676.1,-2439.2,-587
-1185.8,-5208.8,-2306.7,-4413.5,-1779.5,2664.7,-2452.4,-603.8
-1202.8,-5226.2,-2323.6,-4429,-1798.5,2651.2,-2467.5,-622.5
-1209.8,-5239.3,-2326.8,-4437.7,-1808.4,2642.5,-2477.9,-632.8
-1209.2,-5249,-2325.6,-4439.7,-1809.8,2642.1,-2484.3,-634.1
-1191.5,-5243.4,-2306.1,-4423.3,-1792.3,2658,-2488.8,-616.3
-1168,-5225.7,-2281,-4403.1,-1772.3,2674.7,-2471.6,-596
-1152.9,-5211.3,-2265.4,-4393.8,-1763.6,2668.2,-2436,-586.4
-1152.4,-5201.3,-2260.1,-4387.3,-1748.4,2661,-2425.1,-578.6
-1162.8,-5208.4,-2271.6,-4398.5,-1756.1,2651.1,-2430.3,-586.6
-1180.7,-5223.1,-2293.9,-4422.4,-1782.2,2630.1,-2451.2,-611.2
-1196.7,-5246.5,-2316.6,-4440.7,-1802.8,2614.3,-2479.1,-632
-1205.7,-5260.4,-2325.3,-4450.5,-1812.3,2607.3,-2490.3,-640.4
-1202,-5269,-2315.8,-4446.6,-1809.7,2608.8,-2487.5,-638.4
-1182.1,-5256.6,-2292.1,-4429.1,-1790.3,2629.6,-2471,-619.5
-1164.5,-5239.2,-2271.4,-4414.5,-1774.1,2650,-2452,-601.6
-1154.3,-5223.7,-2257.2,-4404.9,-1764.2,2663.9,-2434.6,-589.8
-1162.6,-5218.2,-2259.5,-4400.6,-1762,2669.7,-2429.4,-585.7
-1171.5,-5226.9,-2274.2,-4411.6,-1774.6,2658.5,-2453.4,-595.6
-1184.3,-5253.7,-2299.7,-4436.6,-1788.8,2641.4,-2482.5,-617.8
-1198.2,-5273.6,-2318.2,-4452.3,-1804.5,2630.7,-2484.5,-633.4
-1202.9,-5282.8,-2322.4,-4455.4,-1811.7,2627.4,-2489.9,-638.5
-1194.3,-5276.6,-2311.5,-4446.5,-1802.8,2637.4,-2482,-629.6
-1172.3,-5251.4,-2285.2,-4422.4,-1779.2,2663.7,-2456.6,-605.6
-1154.7,-5232.8,-2267,-4403.7,-1763.9,2683.4,-2438.8,-589.6
-1147.3,-5222.8,-2263.4,-4395.1,-1758.7,2693.4,-2429.7,-582.8
-1146.9,-5225.3,-2271.4,-4397.6,-1764,2691.5,-2435.9,-585.4
-1160.2,-5245.5,-2292,-4416.2,-1784.4,2663.3,-2460.2,-603.3
-1179.2,-5264.9,-2308.7,-4436.6,-1802.9,2630.2,-2471.3,-623.4
-1200.2,-5276,-2316.4,-4446.3,-1802.7,2606.4,-2481.9,-632.1
-1203.2,-5278.3,-2315.5,-4447,-1804.6,2602.2,-2484.6,-635.8
-1185.5,-5258.9,-2297.6,-4430.6,-1786.4,2623,-2467.3,-617.4
-1164,-5232.4,-2274.7,-4411.9,-1764.7,2648.9,-2447.5,-594.4
-1149.2,-5214.8,-2257.7,-4400.8,-1754.9,2663.2,-2430.2,-582.2
-1142.5,-5211.8,-2251.8,-4395.2,-1751.6,2669.1,-2422.4,-578.6
-1148.6,-5226.1,-2258.3,-4400.7,-1762.4,2658.5,-2429.5,-588.5
-1170.4,-5248.8,-2281.1,-4423.1,-1788.8,2634.5,-2452.9,-614.9
-1188.7,-5268.1,-2298.8,-4441.2,-1805.4,2623.9,-2470.1,-630.9
-1206.3,-5276.1,-2310.9,-4449.5,-1812.9,2619.9,-2479.6,-636.6
-1197.9,-5266.9,-2305.2,-4443,-1801.5,2631.4,-2488.6,-627.1
-1176.2,-5249.9,-2289.1,-4424.8,-1774.1,2656.1,-2464,-607.7
-1155.5,-5233.8,-2271.2,-4404.7,-1756.8,2677.3,-2437,-588.9
-1144.3,-5223.4,-2260.4,-4396,-1751.5,2687.7,-2425.7,-581.2
-1144.1,-5230.5,-2262.5,-4396.3,-1758.5,2682.7,-2432.6,-588
-1164,-5250.2,-2277.7,-4412.9,-1779.7,2661.8,-2451.5,-607.2
-1189.2,-5269,-2301.5,-4437.7,-1804.9,2641.2,-2469.6,-630.8
-1203.5,-5285.5,-2321.5,-4455,-1818.3,2634.5,-2485.7,-643.5
-1204.4,-5290.8,-2329.6,-4462.9,-1823,2634.2,-2496,-646.1
-1188.7,-5274.4,-2317.7,-4450.3,-1807.2,2637.6,-2478.2,-628.5
-1169.1,-5253.4,-2293.7,-4423.7,-1776.9,2647.6,-2452.3,-603.7
-1156.9,-5231.4,-2267.7,-4400.5,-1754.1,2654.2,-2431.5,-586.1
-1146.7,-5224.5,-2253.6,-4391.3,-1750.2,2659.3,-2425.2,-581.5
-1154.1,-5227.6,-2252.8,-4393,-1757.3,2650.9,-2431.3,-587.3
-1179.1,-5240.9,-2273.7,-4415.9,-1782.7,2626.5,-2451.7,-611.1
-1201,-5258.2,-2297.1,-4441.7,-1804,2612.4,-2469.7,-630.7
-1207.7,-5274.6,-2311.7,-4457.2,-1812.7,2611.4,-2478.4,-637.2
-1198.6,-5278.4,-2314.4,-4455.9,-1810.4,2619.7,-2477,-633.8
-1181.1,-5266,-2301.9,-4440.7,-1793.8,2639.8,-2461.3,-617.4
-1171,-5245,-2279.6,-4415.7,-1770.9,2664.6,-2437.9,-594.4
-1161.6,-5230.9,-2264.1,-4397.2,-1750.7,2677.9,-2430.5,-579.6
-1153.3,-5225,-2251.8,-4392.3,-1743.4,2680.5,-2440.8,-575.5
-1163.5,-5236.9,-2262,-4403.8,-1756.9,2667.1,-2451.3,-588.2
-1187.5,-5261.5,-2292.1,-4427,-1783.5,2645.8,-2457,-613.1
-1203.9,-5279.7,-2318.1,-4447.2,-1800.1,2639.4,-2466.8,-627
-1206,-5290,-2329.8,-4453.8,-1806.5,2640.8,-2476.6,-631.2
-1196.5,-5284.6,-2324.5,-4449.6,-1803.9,2648.1,-2474.3,-627.6
-1173.6,-5264,-2302.4,-4430.2,-1784.5,2670.8,-2456.2,-607.3
-1150.5,-5244.9,-2278.8,-4409.8,-1764.9,2693.6,-2437.7,-584.6
-1137.1,-5228.5,-2259.1,-4395.4,-1756.3,2699,-2429.5,-575.1
-1137.7,-5227.2,-2251.2,-4390.9,-1756.4,2680.9,-2422.1,-574.9
-1164.1,-5242.1,-2265.6,-4405.6,-1766.3,2644.7,-2437.5,-591.5
-1191.3,-5256,-2283.8,-4425.7,-1786.4,2618.1,-2454,-613.5
-1205.8,-5269.3,-2304.3,-4442.6,-1801.4,2610.9,-2472.7,-627.6
-1205.4,-5269.8,-2311.6,-4448.7,-1806.2,2610.6,-2480.3,-631.6
-1191.1,-5257.2,-2301.7,-4438.6,-1798,2621,-2471.8,-623.8
-1172.1,-5247.6,-2287.4,-4422.5,-1783.5,2641.2,-2462.2,-608.2
-1151.7,-5236.1,-2264.6,-4404.5,-1768.2,2659,-2443.1,-590.9
-1141.3,-5224.7,-2252.3,-4397,-1763,2665.3,-2432.7,-585.2
-1149,-5231.5,-2261.6,-4405.3,-1770.9,2661.1,-2441.7,-591.2
-1179.3,-5246.2,-2282.4,-4422.8,-1790.8,2641.8,-2458.7,-611
-1201.6,-5262,-2305.4,-4441.4,-1799.7,2627.1,-2487.7,-626.3
-1210.8,-5275.2,-2318.6,-4451,-1807.8,2622.9,-2506.8,-635.3
-1212.5,-5278,-2317.8,-4451.6,-1809.6,2622.9,-2490.3,-637.5
-1192.7,-5266.6,-2303.3,-4438.1,-1793.9,2642.6,-2474.6,-622.2
-1166.7,-5248.6,-2283.6,-4416.6,-1772.9,2669.4,-2454.4,-599.7
-1146.6,-5231.7,-2264.9,-4397,-1758.5,2686.8,-2436.1,-583.8
-1143.7,-5227.1,-2263.6,-4397.3,-1758,2692.1,-2430.5,-581.6
-1155,-5237.9,-2274.4,-4407.7,-1768.8,2684.8,-2438.5,-589.3
-1175.1,-5261.7,-2293.9,-4425.7,-1792.5,2662.9,-2448.9,-610.5
-1192.8,-5278.5,-2312.1,-4444.7,-1813.6,2636.9,-2474.6,-631.1
-1199,-5284.7,-2317.5,-4452.4,-1818.2,2615.3,-2488,-637.8
-1202.6,-5277.5,-2306.3,-4443,-1802.3,2604.4,-2480.3,-631.3
-1188.2,-5260,-2289.1,-4425.3,-1781,2627.1,-2462.8,-610.5
-1168.4,-5229.1,-2268.5,-4405,-1760.4,2653.8,-2440.4,-587.5
-1154.3,-5211.9,-2256.2,-4393.4,-1750.8,2668.1,-2424.1,-574.8
-1149.8,-5211.1,-2265,-4397,-1753.4,2672,-2423.6,-574.3
-1159.1,-5228.4,-2276.8,-4410.3,-1770.8,2656.9,-2439.1,-589.7
-1181.1,-5256.6,-2294.6,-4431.2,-1796.8,2631.9,-2461.8,-615
-1200.4,-5274.2,-2310.9,-4448.7,-1814,2618.5,-2481.4,-632.1
-1204.4,-5279.9,-2309.8,-4449.6,-1816.3,2616.5,-2487.8,-634.8
-1197.7,-5266.2,-2300.1,-4437.1,-1798.5,2632.3,-2472.8,-621.3
-1172.8,-5248.5,-2281.9,-4418.7,-1769.3,2658.5,-2470.7,-597.8
-1150.7,-5228.3,-2261.7,-4396.9,-1750.2,2680.4,-2442.2,-578
-1141.8,-5215.1,-2255.6,-4392.9,-1746.5,2689.3,-2415.9,-572.6
-1145.8,-5220.6,-2266,-4401.4,-1754.4,2689.9,-2425.3,-577
-1162.6,-5239.7,-2280.8,-4415.7,-1776.5,2668.5,-2449,-598.1
-1186.6,-5266.8,-2302.3,-4436.9,-1803.3,2643.2,-2477,-625.2
-1200.8,-5292.3,-2323,-4453.8,-1821.1,2629.2,-2502.5,-643.4
-1200.9,-5292.8,-2322.1,-4454.5,-1821.9,2630.1,-2500.9,-642.6
-1189.6,-5277.7,-2308.7,-4442.6,-1809.5,2643.4,-2470.2,-630
-1163.4,-5250.4,-2281.8,-4418.7,-1782.8,2659.7,-2455.7,-602.4
-1146.1,-5226.7,-2262.1,-4403.4,-1762.1,2665.3,-2434,-584.1
-1151.1,-5217.7,-2256.3,-4399.4,-1751.4,2659.6,-2422.1,-578
-1159.6,-5228.9,-2267.2,-4406.6,-1760.9,2653,-2437.1,-586.2
-1179.6,-5244.4,-2288.2,-4426.5,-1785.9,2629.8,-2462.5,-609.5
-1200.6,-5266.1,-2309,-4449,-1810.5,2608.3,-2489.7,-634.5
-1207.6,-5280.5,-2315.2,-4457,-1818.8,2601.7,-2500.6,-643.7
-1198.4,-5271.7,-2304.9,-4447.6,-1813.3,2608.2,-2489.2,-639.3
-1177.8,-5252.5,-2288.1,-4430.7,-1795.6,2628.7,-2467.7,-621.2
-1150.5,-5226.1,-2264.9,-4408.3,-1769.9,2659.9,-2438.3,-593.3
-1138.2,-5211.7,-2250.9,-4392.9,-1758,2676.6,-2422.1,-579.3
-1145.8,-5216.1,-2250.7,-4394.2,-1754.5,2675.5,-2433.8,-580.8
-1155.8,-5231.8,-2264.1,-4406.5,-1764.6,2662.9,-2470,-593.7
-1181.1,-5259.3,-2293.1,-4432.1,-1794.5,2637.2,-2484.2,-622
-1202.8,-5277.3,-2312.5,-4454.2,-1816,2621.9,-2498.7,-642.3
-1201.4,-5278.2,-2314,-4457.9,-1818.3,2624,-2501.5,-643.9
-1187.2,-5264.9,-2302.5,-4443.8,-1810.3,2634.1,-2490.2,-636.2
-1161.9,-5239.4,-2281.1,-4418.6,-1786.2,2662.5,-2465.8,-610.2
-1137.3,-5218.1,-2259.4,-4396.1,-1765.5,2688.5,-2444.5,-586.9
-1126.8,-5209.6,-2246.5,-4387.3,-1762.1,2690.2,-2445.4,-580.3
-1129.8,-5213.9,-2250.7,-4393.9,-1769.6,2667.9,-2449.4,-586.4
-1152.2,-5226.1,-2259.4,-4410,-1787.9,2632.3,-2463.1,-603.6
-1182.9,-5250.3,-2279,-4435.9,-1807.7,2600,-2488.4,-631.2
-1192.4,-5264.2,-2301.4,-4451.5,-1815.3,2596.6,-2502,-640.9
-1188.7,-5252.6,-2296.9,-4449.7,-1814.4,2600.9,-2495.1,-639.2
-1174.1,-5233.9,-2280,-4433.7,-1800,2616.2,-2479.2,-624.3
-1149.8,-5210.6,-2256.4,-4407.3,-1774.2,2646.4,-2455.9,-597.2
-1132.1,-5195.8,-2234,-4387.1,-1758.7,2664.2,-2437.4,-580.4
-1127.7,-5194.9,-2231.6,-4385.1,-1764,2659.6,-2441.8,-585.3
-1135.4,-5213.6,-2254.3,-4400.9,-1782.9,2645.9,-2467.2,-603
-1157.9,-5234.7,-2279.8,-4426.3,-1810.7,2621.1,-2493.7,-628.6
-1189.8,-5251.4,-2303.1,-4448.4,-1832.4,2603.2,-2513.4,-650.4
-1198.9,-5254.5,-2315.7,-4456,-1826.5,2607.1,-2529.1,-651.7
-1194.4,-5241.4,-2307.2,-4445.8,-1819.9,2613.6,-2529.6,-646.6
-1179.1,-5218.5,-2289.4,-4425.5,-1802.6,2634.2,-2490.5,-626.8
-1153.8,-5194.8,-2263.4,-4399.4,-1779.6,2661.7,-2467.1,-602.2
-1139.2,-5181.7,-2242.5,-4383.5,-1770.4,2672,-2455.4,-592.5
-1142.1,-5189.5,-2249.3,-4387.2,-1775.8,2670.8,-2463.2,-597
-1155.5,-5208.1,-2270.3,-4405.6,-1790.8,2660.7,-2480.5,-610.5
-1175.6,-5230.7,-2297.6,-4430.3,-1818.1,2637.1,-2506.4,-635.7
-1188.4,-5242.3,-2320,-4446.3,-1834.3,2619.2,-2527.6,-649.2
-1187.5,-5234.2,-2315,-4445.1,-1832.5,2607.7,-2513.3,-646.6
-1187.7,-5216.4,-2293.3,-4428.2,-1819.3,2600.5,-2494.3,-635.6
-1170.6,-5196.3,-2269.1,-4403.9,-1788.9,2620.2,-2472.2,-614.5
-1149.7,-5177.4,-2247,-4381.8,-1766.6,2643.6,-2452.9,-592.3
-1144.9,-5167.2,-2241.8,-4377.9,-1765.1,2647.3,-2452.5,-589.4
-1150.1,-5176.1,-2252.4,-4388.2,-1774.1,2643.1,-2465.4,-596.5
-1165.7,-5197.6,-2274.7,-4408.6,-1794.2,2628.3,-2486.4,-614
-1187.9,-5226,-2301.3,-4432.8,-1818.6,2609.5,-2507.5,-636.3
-1197.8,-5234.4,-2315.1,-4444.9,-1824,2612.1,-2509.7,-640.5
-1199,-5227.8,-2308.2,-4441,-1821,2616,-2500.4,-637.7
-1195.7,-5211.2,-2291.1,-4423.6,-1808.8,2626.1,-2482.2,-626.5
-1169.1,-5188.8,-2263.2,-4397.4,-1782.4,2648.7,-2477.9,-602.6
-1147.5,-5175.7,-2243.6,-4379.5,-1756.9,2668.5,-2467.4,-584.9
-1148.4,-5183.8,-2247.9,-4380.4,-1758.2,2671.1,-2459.5,-585.1
-1159.3,-5201,-2267.5,-4394.6,-1769.4,2667,-2459.4,-593.3
-1180.4,-5223.5,-2296.2,-4418.1,-1792.8,2648.1,-2482.8,-615.1
-1197.5,-5237.4,-2316.6,-4437.5,-1813,2632.7,-2495.6,-634.8
-1199,-5238.8,-2319,-4441.8,-1816.7,2637.3,-2497.4,-636.6
-1192.3,-5232.3,-2309.1,-4435.5,-1814.2,2643.2,-2491.9,-631.2
-1174.4,-5218.1,-2290.5,-4419.1,-1800.1,2657.4,-2479.7,-616.8
-1152,-5206.2,-2272.3,-4398.6,-1782,2662.5,-2468.6,-598.7
-1146.4,-5198.4,-2263,-4390.9,-1769,2658.5,-2453.6,-587.8
-1159.4,-5197.6,-2260.4,-4392.7,-1766,2642,-2452.9,-591.1
-1173.2,-5211.5,-2272.5,-4408.3,-1780.8,2631.2,-2470.8,-604.2
-1196.5,-5227.6,-2296.2,-4434.3,-1806.5,2610,-2493.4,-627.6
-1211.7,-5236,-2305.6,-4449.6,-1820.6,2599.1,-2502.6,-640.5
-1210.4,-5236.5,-2306.1,-4449.2,-1818.9,2605.5,-2502.9,-638.2
-1197,-5231.2,-2295.4,-4436.7,-1809.1,2616.6,-2487.8,-629.3
-1175.5,-5218.9,-2278.1,-4416,-1790.5,2634.7,-2468.8,-612.2
-1154.6,-5203.3,-2262,-4398.4,-1770.5,2660.4,-2450.1,-591.2
-1156.3,-5198.6,-2256.8,-4394,-1769.7,2664.7,-2446.4,-589
-1167.6,-5202.5,-2264.1,-4397.9,-1768.8,2659.8,-2456.8,-593.4
-1180.6,-5216.6,-2277.8,-4411.2,-1778.6,2647.6,-2488.5,-605.2
-1201.1,-5238,-2298.5,-4428.1,-1802.1,2626.8,-2493.4,-628
-1210.2,-5249.1,-2309.7,-4438.8,-1812.9,2621.5,-2498.8,-638.6
-1205.1,-5246.2,-2309.4,-4437.3,-1810.6,2630.3,-2496.5,-634.7
-1192.9,-5234,-2298.2,-4422.9,-1801.5,2641.4,-2484.4,-626.4
-1172.1,-5216.2,-2282.7,-4405.9,-1781.6,2666.2,-2463.4,-606.1
-1156.3,-5205.6,-2274.7,-4396.1,-1768.8,2686.9,-2449.8,-590.5
-1153.9,-5204.7,-2271.5,-4394.1,-1769.9,2688.3,-2442.7,-588.3
-1162.5,-5215.8,-2277.8,-4401.1,-1777.2,2677.2,-2444.9,-594.4
-1181.9,-5226.5,-2281.7,-4410.7,-1789.8,2629.6,-2469.2,-606.6
-1205.8,-5244.7,-2290.2,-4427.7,-1802.5,2600.2,-2485.1,-627.2
-1211,-5249.2,-2302.7,-4436.8,-1804.3,2601.1,-2488.6,-631.4
-1206.1,-5235.6,-2300.7,-4434.5,-1801.4,2609.9,-2483,-626.4
-1190.2,-5214,-2284.8,-4421.3,-1787.3,2627.9,-2464.7,-611.5
-1168.3,-5196.4,-2268.7,-4406.6,-1766.7,2655.5,-2443.8,-589.6
-1157.4,-5191.9,-2264.1,-4400.8,-1760.8,2667.5,-2436.4,-580.6
-1157,-5199.1,-2263.4,-4398.4,-1761.8,2667.8,-2433.2,-580.3
-1167.5,-5214.1,-2274.9,-4407.8,-1771.5,2659.8,-2447.4,-588.6
-1184,-5236,-2294.1,-4423.7,-1792.4,2639.6,-2469.6,-607.6
-1206.1,-5247.1,-2303.1,-4435.5,-1807.7,2625.1,-2494.1,-622.5
-1213.4,-5255.6,-2311.1,-4443.9,-1805.5,2623.2,-2513.6,-630.3
-1208.1,-5246.9,-2305.1,-4439.5,-1800.8,2630.4,-2500.3,-626.3
-1190.4,-5230.2,-2292.4,-4426.4,-1788.2,2650,-2464.7,-611.7
-1171,-5216.3,-2282.4,-4412.1,-1773.1,2673.9,-2449.7,-593.6
-1164.6,-5212.4,-2278.7,-4402.9,-1769.2,2683.4,-2447.8,-586.8
-1168.5,-5216.1,-2281.2,-4405.3,-1771.9,2683,-2450.6,-587.8
-1179.7,-5233.9,-2291.5,-4416.5,-1784.7,2670.8,-2467.7,-599.6
-1197.6,-5250.7,-2306.6,-4432.1,-1805.1,2651.1,-2485.9,-618.9
-1205.5,-5257.1,-2315.3,-4442.4,-1817.4,2633.5,-2499.7,-629.7
-1204.3,-5254.9,-2315.3,-4444.1,-1814.8,2621.8,-2490.8,-628.2
-1202.3,-5236.4,-2302.7,-4432,-1795.1,2617.7,-2470.9,-617
-1186.5,-5216.7,-2283.4,-4415.5,-1777.3,2635.4,-2450.9,-599.7
-1172.4,-5198.5,-2271.2,-4401.9,-1763.1,2655,-2438.5,-582.7
-1165.8,-5195.9,-2265.9,-4396.7,-1760.6,2662,-2436.2,-578.1
-1171,-5212.3,-2273.7,-4403.6,-1768,2657.5,-2448.8,-584.1
-1182.8,-5235,-2289.7,-4419.2,-1784,2643.2,-2466.5,-599.2
-1196.5,-5249.5,-2305,-4436.4,-1804.5,2625.3,-2482.6,-619.4
-1204.1,-5256.5,-2312.1,-4446.3,-1814.7,2620.3,-2488.5,-628.9
-1200.5,-5248.5,-2310.9,-4443.1,-1811.7,2628,-2480.4,-622.7
-1198.7,-5230.6,-2296.5,-4428.1,-1796,2642,-2463.7,-608.9
-1181.6,-5213.2,-2276.5,-4406.2,-1766.7,2664.6,-2464,-588.6
-1167.4,-5205.2,-2266.7,-4394.7,-1756.6,2679.4,-2448.5,-577.7
-1166.1,-5209.1,-2271.2,-4398,-1761.9,2680,-2440.9,-580.9
-1172.9,-5224,-2285,-4406.8,-1772.3,2673.7,-2456.1,-590.3
-1185.9,-5240.4,-2303,-4422.6,-1790.5,2659.7,-2472.8,-607.8
-1196.9,-5250.8,-2313.3,-4435.1,-1805.2,2648.6,-2482.9,-621.9
-1201,-5253.9,-2316.6,-4440,-1809,2649.1,-2482.8,-624.1
-1196.5,-5246.3,-2312.5,-4436.1,-1805.9,2654.5,-2460.9,-619
-1180,-5224.2,-2289,-4416.8,-1790,2652.4,-2451.8,-603.6
-1167.8,-5209,-2269.9,-4401,-1767.4,2655.3,-2438,-586.1
-1167.1,-5200.2,-2260.6,-4393.4,-1752.6,2657.1,-2429.9,-575.4
-1171.4,-5203.5,-2267.2,-4399.6,-1760.5,2653.5,-2438.4,-582
-1183.2,-5223,-2291.8,-4417.7,-1779.6,2640.7,-2464.9,-599.5
-1197.1,-5238.4,-2312.3,-4437.4,-1797.8,2626.7,-2478.8,-616.4
-1208,-5253.9,-2319.4,-4448.8,-1810.2,2616.2,-2484.3,-628.8
-1207.7,-5254.7,-2316.8,-4449.3,-1809.6,2620.5,-2481.3,-627.9
-1198.8,-5245,-2302.6,-4441,-1804.1,2626.2,-2469,-623
-1183.9,-5227.6,-2281.1,-4422.8,-1788.1,2639.9,-2449.7,-607.6
-1173.8,-5214.3,-2275.4,-4406.4,-1769.6,2664.1,-2443.7,-585.7
-1171.6,-5209.8,-2272.8,-4402.4,-1758.7,2673.1,-2455.6,-579.8
-1176.6,-5220,-2284.6,-4413.7,-1768.1,2665.7,-2449.4,-592.7
-1187.1,-5240.3,-2307,-4428.6,-1781.9,2659.3,-2464.2,-603.1
-1199.6,-5253.8,-2320.1,-4443.4,-1796.4,2649.1,-2477.6,-615.8
-1210,-5256.4,-2323.1,-4449.2,-1808.1,2640.8,-2483,-627.6
-1206.7,-5242.6,-2312.6,-4442.1,-1804.9,2645.8,-2470.8,-624
-1197.1,-5231.2,-2296.4,-4427.8,-1797.2,2652.6,-2458.7,-617
-1180,-5225.5,-2284.4,-4413.6,-1783.4,2668.3,-2445.1,-601.4
-1163,-5220.5,-2277.3,-4404,-1772,2680.7,-2437.5,-587.9
-1165.2,-5218.3,-2274.3,-4403.1,-1771,2668.8,-2447.9,-585.9
-1176.7,-5227.3,-2286.6,-4413.6,-1770.4,2648.4,-2456.6,-591.3
-1188.1,-5236.7,-2297.6,-4425.5,-1781.3,2634.3,-2465,-602.1
-1201.3,-5236.5,-2307.2,-4437.6,-1799.2,2616.6,-2474.4,-620.3
-1203,-5232.8,-2307.5,-4439.1,-1801.7,2617.2,-2473.2,-623.4
-1195.2,-5228.4,-2297,-4430.4,-1796.7,2623.3,-2465.2,-618.8
-1184.2,-5226.9,-2283.6,-4417.5,-1787.9,2630.2,-2455.6,-611.6
-1170.6,-5218,-2272,-4405,-1775,2647.1,-2448.2,-597.5
-1158.3,-5215,-2263.4,-4396.7,-1765.7,2662,-2444.2,-585.9
-1160.1,-5219.6,-2274.2,-4402.6,-1770.6,2661.9,-2449.1,-589.3
-1175,-5223.2,-2289.1,-4410,-1774.6,2660.7,-2470.4,-590.8
-1189.6,-5229.2,-2294.7,-4420.9,-1780.6,2648,-2477.9,-605
-1204.7,-5239.7,-2304.9,-4432.5,-1796.1,2633.5,-2469.6,-621.7
-1202.6,-5236.3,-2305.5,-4431.9,-1796.7,2640.3,-2466.8,-620.9
-1195.8,-5228.6,-2297.4,-4424.6,-1793,2647.7,-2460.9,-617.3
-1184.6,-5224.4,-2289.7,-4414.2,-1784.7,2659,-2458.7,-609.8
-1172.1,-5225.7,-2282.2,-4407.2,-1777.8,2669.2,-2461.6,-602.4
-1167.2,-5224.6,-2281.2,-4408.1,-1776.5,2675.1,-2460.5,-596.6
-1173.2,-5232,-2293,-4416.5,-1784.6,2670.9,-2453.8,-602.2
-1177,-5238.1,-2295.4,-4417.6,-1791.3,2652.2,-2468.9,-608.1
-1190.4,-5244.5,-2304.2,-4427.8,-1802.1,2625.1,-2480.6,-620.1
-1207.7,-5239.6,-2303.4,-4431.5,-1799.8,2606.5,-2476.5,-625
-1204.3,-5233.5,-2296.2,-4428.7,-1798.9,2610.2,-2472.9,-623.3
-1194.8,-5220.4,-2293.4,-4424.6,-1795.8,2618.7,-2466.2,-618.9
-1182.7,-5216.3,-2285.7,-4416.9,-1786.9,2629.3,-2461,-610.8
-1170.7,-5210.9,-2276,-4408,-1775.5,2644.1,-2454.5,-598
-1167.6,-5216.8,-2277.4,-4408.4,-1775.5,2648.4,-2455,-596.7
-1172.6,-5225.6,-2277.8,-4410.6,-1780.2,2644.1,-2458.5,-600.7
-1181.2,-5230,-2281.4,-4415.8,-1786.8,2638.6,-2462.6,-605.2
-1191.8,-5238.5,-2294.2,-4426.2,-1800.4,2628.9,-2471.2,-617.5
-1203.5,-5238.4,-2303.3,-4430.3,-1800.1,2629.1,-2473.8,-621.5
-1198.8,-5232.3,-2301.9,-4427.7,-1789.3,2637.8,-2486.6,-616.1
-1195.8,-5228.4,-2302.6,-4424.3,-1789,2642.5,-2471.1,-615.5
-1188,-5225.5,-2297.6,-4414.4,-1776.9,2658.1,-2454.3,-602.8
-1179.7,-5224,-2293.8,-4406.8,-1768.1,2672.4,-2447.8,-591.8
-1177.8,-5228.5,-2291.8,-4406,-1771.1,2673,-2450.6,-593
-1176.1,-5231.7,-2283.5,-4404.5,-1772.8,2671.7,-2456.2,-594.1
-1181.8,-5238.2,-2289.3,-4414.2,-1784.8,2662.3,-2465.4,-605
-1190.4,-5244.1,-2300.9,-4426.4,-1799.6,2650.9,-2470.8,-618.2
-1192.5,-5244.4,-2306.8,-4432.9,-1804.2,2651.1,-2459.2,-621.1
-1188.6,-5232,-2297.4,-4425.7,-1798.1,2630.6,-2461,-614.3
-1191.1,-5229.3,-2287.9,-4419.8,-1786.9,2623.4,-2458.5,-609
-1176,-5224.5,-2277,-4408.3,-1767.9,2639.6,-2451.1,-594.5
-1169.4,-5220.6,-2269.9,-4403.5,-1765.5,2643.1,-2449.9,-591.4
