EEG1,EEG2,EEG3,EEG4,EEG5,EEG6,EEG7,EEG8
0,0,0,0,0,0,0,0
-7766.1,-6823,-8442.4,-12150.4,-12821.8,4734.3,-12151.5,-12328.5
-7765.4,-6820.8,-8438.6,-12156.3,-12843.8,4731.8,-12159.4,-12351.8
-7756.8,-6807.5,-8433.9,-12148.6,-12839.4,4731.1,-12156.8,-12342.7
-7746.6,-6792.8,-8429.9,-12134.7,-12817.7,4732,-12147.3,-12315.5
-7733.6,-6775.3,-8425.5,-12116,-12787.8,4730.5,-12137.5,-12283.2
-7721,-6764.8,-8421.6,-12103.9,-12759.6,4730.6,-12128.4,-12262.2
-7723,-6773.7,-8420.8,-12105.5,-12760.5,4730.2,-12130,-12260.6
-7732.4,-6791.8,-8425.6,-12118.4,-12778,4730.2,-12137.7,-12278
-7744,-6813.9,-8431.8,-12141.7,-12809.1,4731.4,-12149,-12317.3
-7749.8,-6831.8,-8434.8,-12160.1,-12839.4,4731.6,-12158.7,-12354.5
-7757.4,-6849.8,-8436.5,-12169.9,-12854.3,4731.3,-12163.3,-12358.4
-7744.5,-6837.9,-8430.5,-12161.5,-12836.7,4732.3,-12154.5,-12335.9
-7726.2,-6813.3,-8422.2,-12138.5,-12800.6,4734.6,-12138.4,-12294.5
-7715.8,-6800.6,-8417.5,-12119.8,-12771.3,4736.2,-12127.1,-12261.2
-7712.2,-6800.8,-8416.6,-12115.1,-12765.6,4733.8,-12127.7,-12255
-7715.5,-6811.5,-8420.1,-12121.8,-12774.4,4734.9,-12132.1,-12267.1
-7724.6,-6831.4,-8424.8,-12139.5,-12793.1,4737.9,-12136.7,-12294.7
-7731.6,-6854.5,-8428,-12163.2,-12818.5,4738.9,-12145,-12330.3
-7737.3,-6871.9,-8429.6,-12180.1,-12839.2,4740.4,-12150.7,-12348.5
-7731.4,-6867.4,-8426.3,-12176.2,-12833.3,4741,-12145.9,-12336.3
-7719.5,-6855.1,-8420.8,-12162,-12812.9,4740.6,-12138,-12309.9
-7704.9,-6836.4,-8413.7,-12140.7,-12782,4740.7,-12126.3,-12271.2
-7694.2,-6821.2,-8409.4,-12123.8,-12756.9,4740.6,-12118,-12245
-7697.4,-6825.8,-8412.7,-12125.9,-12756.4,4741.4,-12119.5,-12247.3
-7706.9,-6846.8,-8418.2,-12145.6,-12772.9,4741.8,-12127.2,-12267.8
-7726.2,-6877.2,-8427,-12169.3,-12802.3,4741.6,-12139.2,-12301.1
-7732.9,-6899.1,-8428.9,-12190.3,-12837.4,4739.2,-12152.4,-12344.4
-7721.5,-6891.8,-8423.6,-12189.8,-12843.5,4739.3,-12154,-12349.7
-7709.1,-6872.4,-8418.9,-12177.3,-12825.9,4740.5,-12144.8,-12326.4
-7698.6,-6854.3,-8413.2,-12163.1,-12796.8,4741,-12132.3,-12287.3
-7684.2,-6834.4,-8406.7,-12148.2,-12766.7,4739.5,-12122.7,-12254
-7681.1,-6833.5,-8408.1,-12142.1,-12755.2,4736.9,-12121.5,-12247.2
-7686.6,-6850.1,-8411.8,-12152.6,-12761.8,4736.5,-12125.6,-12258.7
-7692.2,-6867.2,-8418.4,-12165.7,-12776.7,4738.4,-12133.4,-12277.9
-7706.7,-6899.9,-8426.2,-12189.3,-12813.4,4738.5,-12147.2,-12323.1
-7710.9,-6911.8,-8426.6,-12203,-12834,4738.7,-12152.5,-12347.8
-7699,-6901.9,-8420.8,-12198,-12826,4739.5,-12148,-12339.1
-7678.7,-6882.6,-8417.2,-12179.9,-12799.5,4737.5,-12139.1,-12316.9
-7667,-6858.9,-8410,-12148.3,-12763.8,4737.3,-12123.4,-12270.6
-7666.6,-6852.4,-8405.9,-12134.6,-12740.8,4740.1,-12114,-12241
-7673.4,-6859.1,-8406.6,-12143.7,-12744,4740.7,-12116.3,-12248
-7676.1,-6871.6,-8406.5,-12156.1,-12761.8,4741.8,-12123.2,-12272.6
-7692.2,-6904.8,-8412.5,-12174,-12795.6,4742.4,-12137.2,-12302.9
-7705.1,-6933.5,-8419.9,-12193.9,-12827.9,4743.5,-12148.2,-12341
-7703,-6938.1,-8419.5,-12198.6,-12834.8,4743.8,-12148.3,-12347.9
-7693.3,-6923.2,-8414.5,-12187.6,-12820,4745.1,-12140.8,-12325.5
-7674.8,-6894,-8406,-12165.2,-12791.7,4741.6,-12131.3,-12290
-7658,-6867.4,-8397.8,-12142.2,-12761.5,4739.1,-12122,-12256.1
-7652.9,-6858.9,-8396.2,-12132.5,-12744,4739.3,-12115.4,-12239.3
-7655.1,-6869,-8399.1,-12141.1,-12749.3,4739.1,-12118.5,-12249.8
-7671.9,-6896.4,-8408.3,-12164,-12776.1,4739.4,-12129.7,-12282.9
-7688.9,-6921.1,-8417.9,-12188.7,-12809.7,4739.4,-12142,-12324
-7693.5,-6932.7,-8420.6,-12205.4,-12833.4,4739.8,-12149.9,-12349.1
-7687.2,-6926.9,-8417.9,-12207.7,-12833.6,4739.9,-12149.5,-12340.8
-7676.4,-6906.2,-8411.2,-12192.9,-12809.8,4741.2,-12138.9,-12309.4
-7665,-6882.7,-8404.2,-12171.2,-12776.4,4739,-12127.5,-12270.6
-7657.5,-6871.6,-8400.1,-12155,-12751.8,4737,-12119.4,-12244.9
-7664,-6880.8,-8404,-12153.9,-12749.3,4736.4,-12119.7,-12241.6
-7676.8,-6899.4,-8411.5,-12167.2,-12772.7,4736.6,-12130.1,-12272.5
-7688.5,-6919.9,-8417.2,-12185.8,-12801.2,4738.1,-12140,-12310.5
-7699.7,-6940.1,-8423.2,-12208.1,-12828.2,4738.6,-12148.7,-12343.3
-7699.8,-6943.4,-8422.2,-12215,-12836.8,4738.4,-12151.3,-12348
-7689.6,-6927.7,-8415.1,-12199.3,-12824.2,4737.9,-12145.8,-12329.3
-7676.6,-6905.7,-8408.3,-12175.2,-12797.3,4736.6,-12135.5,-12298.2
-7661.6,-6879.7,-8401.8,-12148.6,-12759.9,4737.6,-12121.6,-12256.1
-7652.7,-6865.7,-8399.1,-12134.1,-12734.4,4739.1,-12113.2,-12232
-7662.7,-6881.8,-8405.2,-12145.5,-12746.8,4740.1,-12119.7,-12250.2
-7673.7,-6901.3,-8411.5,-12163.3,-12770.2,4739.3,-12128.5,-12281.7
-7685.4,-6922.1,-8419.6,-12186.2,-12803.7,4739.1,-12142.1,-12324.6
-7686,-6926.8,-8420.9,-12199.5,-12818.3,4742.2,-12145.8,-12347.9
-7683.5,-6921.4,-8415.9,-12196.4,-12810.7,4742.7,-12139.3,-12331.6
-7680.2,-6914.9,-8413.1,-12187.6,-12797.2,4740.2,-12135.3,-12310.8
-7671.5,-6898.2,-8408.6,-12171,-12775.3,4736.5,-12130,-12283.3
-7664.1,-6884.2,-8406.6,-12155.2,-12753.2,4736.1,-12122.2,-12260.9
-7670.7,-6891.1,-8408,-12154,-12753,4736.4,-12123.4,-12253
-7671.9,-6899,-8409.8,-12162.8,-12766.2,4736.3,-12129.9,-12269.7
-7681.2,-6917.2,-8418.6,-12182.6,-12795.2,4735.8,-12142.5,-12305.1
-7696.4,-6942.3,-8426.1,-12207,-12827.7,4735.8,-12154.3,-12342.5
-7701.8,-6947,-8426.8,-12213.1,-12837.3,4735.2,-12156,-12352.1
-7697,-6936,-8419.9,-12205,-12826.4,4734.8,-12150.8,-12336.6
-7684.4,-6915.5,-8412.8,-12187.5,-12800.1,4733.6,-12140.7,-12303.9
-7666.4,-6891,-8405.9,-12163.8,-12763.5,4732.6,-12127.8,-12260.5
-7666.8,-6887.1,-8407.6,-12154.8,-12750.6,4733,-12124.7,-12244
-7677.2,-6895.8,-8414.3,-12161.3,-12758.3,4734.3,-12128.6,-12256.4
-7690.2,-6913.4,-8420.9,-12177.3,-12781.2,4736.3,-12136.8,-12285.6
-7702.2,-6938.6,-8426,-12201.3,-12814.6,4737.9,-12147.1,-12324.5
-7705.1,-6952.1,-8426.5,-12217,-12836,4738.7,-12153.3,-12350.8
-7698.3,-6945.7,-8423.5,-12214,-12832.3,4739.3,-12150.2,-12346
-7694.4,-6931.3,-8421.7,-12199.6,-12811.3,4740.8,-12140.2,-12318
-7690,-6916.1,-8418.5,-12178.8,-12779.2,4741.3,-12127.4,-12274.3
-7682,-6907,-8417,-12167.2,-12755.9,4741,-12119.8,-12250.3
-7677.7,-6903.5,-8416.3,-12165.2,-12753.3,4739.6,-12122.3,-12250.7
-7677.1,-6911.3,-8414.2,-12172.7,-12768.1,4736.8,-12131.6,-12269.8
-7683.8,-6928.6,-8417,-12188.2,-12797.2,4737,-12143.7,-12302.6
-7692.9,-6946.5,-8421.3,-12206,-12825.8,4738.3,-12152.9,-12338.7
-7696.1,-6950.4,-8421.2,-12212.1,-12835.1,4741.4,-12153.7,-12348.9
-7687.9,-6939.3,-8416.2,-12203.6,-12823.9,4741.9,-12147.2,-12333.8
-7669.2,-6907.9,-8406.8,-12176.5,-12787.5,4739.5,-12134.5,-12293.2
-7662,-6892.4,-8403,-12157.8,-12757.8,4741.1,-12124.2,-12258
-7661.7,-6897.7,-8403.6,-12157.5,-12745.9,4740.9,-12120.6,-12245.8
-7665.7,-6908.9,-8409.4,-12170.4,-12750.6,4741.3,-12123.6,-12256.8
-7668,-6916.8,-8414.4,-12184.2,-12763.8,4741.5,-12130.4,-12285.2
-7683.4,-6935.3,-8420.2,-12199,-12793.4,4740.2,-12141.9,-12316.6
-7694.7,-6950.9,-8422.7,-12211.1,-12819.6,4739.4,-12151.2,-12340.5
-7691.5,-6945.8,-8419.3,-12208.5,-12824.3,4738.7,-12151.7,-12342.9
-7681.8,-6930.5,-8414.4,-12193.9,-12809,4738,-12144.4,-12325.1
-7678.5,-6920.4,-8410.8,-12176.5,-12782.1,4738.3,-12133.2,-12281.1
-7673,-6907.7,-8409,-12165.4,-12757.4,4740.6,-12122.7,-12252.9
-7672.5,-6907,-8410,-12166.6,-12750.2,4741.2,-12121,-12250.8
-7677.8,-6919.9,-8413.4,-12178.8,-12763.5,4742.6,-12126.5,-12269
-7683.7,-6939.1,-8416.8,-12196.6,-12787.9,4741.7,-12135.1,-12300.1
-7688.7,-6957.6,-8418.6,-12213.3,-12817,4736.7,-12148.6,-12338.4
-7692.3,-6963.6,-8420.8,-12222.8,-12829.7,4737.7,-12151.4,-12352.8
-7688.2,-6948.2,-8420.7,-12215.9,-12814.1,4736.7,-12144.2,-12334.6
-7682.2,-6933.9,-8418.7,-12202.7,-12790.6,4739.5,-12133.3,-12300.6
-7673.6,-6916,-8416.5,-12187,-12763.5,4738.9,-12124.2,-12266.8
-7670,-6908,-8418,-12177.1,-12746.7,4736.8,-12121.1,-12249.3
-7672.9,-6913.2,-8416.2,-12172.9,-12753.9,4738.2,-12124.9,-12257.8
-7678.1,-6927.9,-8414.6,-12177.2,-12772.7,4740.8,-12131.6,-12282
-7689.8,-6948.4,-8419.1,-12191.8,-12800,4743.6,-12140.4,-12317
-7698.8,-6960.5,-8422,-12205.1,-12823.2,4744.6,-12148.1,-12341.7
-7699.8,-6960.7,-8421.1,-12205.6,-12828.2,4742.9,-12149.3,-12337.5
-7690,-6950.7,-8416.8,-12198.2,-12820.6,4742,-12145.9,-12324.7
-7675.3,-6923,-8411,-12174.7,-12788.2,4744.1,-12132.3,-12284.2
-7664.2,-6902.6,-8406.8,-12153.5,-12758,4744.8,-12121.3,-12248.7
-7662.5,-6899.4,-8405.5,-12146.1,-12746.8,4744.4,-12118.7,-12236.9
-7673,-6914.8,-8411.2,-12159.1,-12764.4,4744,-12127.7,-12262.4
-7685.3,-6937.1,-8417.6,-12181.6,-12793.7,4744.2,-12140.1,-12300.4
-7697.5,-6958.8,-8424,-12206.1,-12824.3,4742.9,-12152.3,-12337.5
-7693.4,-6949.9,-8423.6,-12206.3,-12823.9,4742,-12150.8,-12337.5
-7690.1,-6946.7,-8422.7,-12204.6,-12824.2,4742.3,-12148.9,-12334.1
-7678.3,-6930.5,-8416.5,-12190.8,-12800.1,4744.4,-12137.8,-12300.8
-7662.8,-6904.9,-8408.3,-12165.9,-12762.4,4743.2,-12124.3,-12261.6
-7652.9,-6892.1,-8404.7,-12154,-12742.3,4743,-12119.3,-12253.1
-7655.1,-6899.3,-8405.4,-12154.4,-12742.6,4743.9,-12119.2,-12251.9
-7667.4,-6918.3,-8411.6,-12165.2,-12759.3,4744.8,-12126.2,-12269.8
-7684.4,-6939.7,-8419.8,-12186.7,-12791.7,4745.7,-12137.7,-12310
-7694.4,-6950.2,-8424.7,-12201.3,-12817.4,4746.6,-12145.8,-12341.4
-7699.8,-6959.7,-8425.8,-12205.1,-12822,4748.8,-12145.6,-12333.5
-7691.6,-6951,-8422.1,-12200.5,-12811.9,4749.1,-12140.8,-12317
-7677.2,-6931.2,-8415.3,-12185.5,-12787.8,4749.4,-12130.4,-12288.8
-7662.4,-6909,-8407.1,-12161.6,-12754.7,4749.2,-12117.2,-12250.7
-7656.2,-6901.1,-8404.3,-12150.2,-12738.3,4747.5,-12113.1,-12235.7
-7664.8,-6913.5,-8410.3,-12160.3,-12750.8,4747.8,-12118.7,-12256.1
-7678.5,-6934.1,-8416.5,-12179.8,-12779.9,4745.7,-12130.7,-12294.9
-7687.3,-6951.1,-8420.5,-12197.8,-12805.7,4744.8,-12140.5,-12326
-7697.8,-6964.3,-8424.6,-12211,-12825.6,4745,-12146.3,-12344.8
-7693,-6953.3,-8421.6,-12204.5,-12818.9,4742.1,-12142.6,-12335.1
-7682.5,-6933.4,-8416.5,-12189.3,-12799.6,4740.1,-12136.9,-12309.2
-7671.8,-6914.1,-8412.1,-12170,-12770.5,4739.2,-12128,-12271.2
-7665.8,-6905.5,-8410.7,-12160.9,-12752,4738,-12124,-12251.4
-7668.4,-6911.3,-8412.9,-12165.8,-12753.1,4736.4,-12127.3,-12259.1
-7680,-6927.6,-8419.4,-12178.8,-12768.5,4736.5,-12133.9,-12279.9
-7698,-6951.5,-8429.9,-12198.7,-12799.4,4737.5,-12145.2,-12311.9
-7707.3,-6970.3,-8437.2,-12220.4,-12835.4,4737,-12158.8,-12353.4
-7702.1,-6967.1,-8431.7,-12219,-12839,4738.5,-12157.5,-12356.2
-7693.3,-6955.1,-8424,-12204.2,-12822.1,4740.1,-12148.7,-12333.3
-7681,-6934.4,-8417.2,-12179.9,-12791.9,4740.4,-12137,-12293.5
-7671.6,-6914.7,-8413.7,-12157.9,-12762.5,4741.2,-12126.9,-12259.2
-7669.3,-6910.1,-8412.6,-12150,-12749.3,4742.4,-12122.8,-12248.8
-7674.7,-6918.2,-8418.8,-12162.2,-12753.8,4745.2,-12124.4,-12258.7
-7683,-6931.2,-8427.6,-12184.4,-12769.8,4745.9,-12131.3,-12282.8
-7699.1,-6957.4,-8433.7,-12211.4,-12808.3,4745.9,-12146.8,-12326.3
-7706.6,-6970.5,-8435.2,-12223.2,-12829.1,4744.5,-12154.1,-12347.1
-7699.3,-6962.9,-8431.7,-12217.5,-12818.8,4744.8,-12148.2,-12336.8
-7680.6,-6937.2,-8423.2,-12197.9,-12789.8,4746.2,-12136.5,-12311.5
-7666.8,-6910.2,-8415.3,-12167.3,-12754.5,4746.4,-12121.6,-12262.5
-7665.4,-6903.5,-8413.1,-12154.2,-12739.1,4745.6,-12118.1,-12241.6
-7668.5,-6908.3,-8412.4,-12160.2,-12744.9,4744.9,-12121.9,-12252.2
-7677,-6919.5,-8418.6,-12171.8,-12764.7,4743.7,-12129.4,-12279.6
-7696.8,-6952.9,-8428.3,-12190.8,-12795,4746.1,-12139.2,-12306
-7706.3,-6976.6,-8431.8,-12210.8,-12822.2,4746.8,-12148.6,-12338.9
-7704,-6975.3,-8429.4,-12214.6,-12828.2,4744.6,-12151.3,-12347.5
-7695.5,-6961.8,-8423.7,-12203.8,-12817.3,4744.2,-12146,-12332.9
-7680.7,-6934.7,-8414.6,-12180,-12786.2,4743,-12134.1,-12293.5
-7669.5,-6914.6,-8410.5,-12160.2,-12755.5,4740,-12124.3,-12259.8
-7667.5,-6911.9,-8410.2,-12156.4,-12743.3,4739.8,-12120.9,-12249.7
-7671.7,-6918.5,-8414.1,-12164,-12747.8,4740.4,-12123.1,-12258.7
-7687.5,-6942.7,-8422.1,-12184.8,-12776.7,4740,-12135.2,-12291.8
-7703,-6964.5,-8430.1,-12206.7,-12811.1,4739.4,-12148.5,-12332.6
-7708.2,-6974.6,-8432.1,-12218.6,-12832.2,4739.3,-12155.5,-12358.4
-7703.2,-6969,-8428.7,-12215.3,-12826.2,4740.5,-12151,-12348
-7694.5,-6956.5,-8425.9,-12205.4,-12801.9,4741,-12140.6,-12318.4
-7683.2,-6941.9,-8422.1,-12189.6,-12768.1,4741.1,-12127.5,-12280
-7681.5,-6936.6,-8422.6,-12179.3,-12742.6,4741.8,-12118.9,-12250.6
-7693.6,-6952.5,-8429.9,-12184.1,-12741.1,4742.6,-12119.5,-12246.1
-7704.8,-6962.1,-8436.3,-12193.1,-12762.9,4740.8,-12129.8,-12275.7
-7711.8,-6958.2,-8437.6,-12196.9,-12790.3,4741.1,-12140.5,-12311.2
-7716.9,-6953.7,-8434.4,-12200.7,-12818.5,4740.1,-12150.7,-12343.5
-7717,-6951.2,-8431.1,-12202.5,-12830.6,4739.8,-12154.1,-12352.5
-7708.8,-6936.4,-8425.4,-12194.9,-12822.2,4739.2,-12150.2,-12339.1
-7697.7,-6912.5,-8419.2,-12174.7,-12794.2,4741.3,-12137.7,-12304.5
-7680.9,-6883,-8410.6,-12146.3,-12750.9,4741.5,-12120.8,-12255
-7675.5,-6867.5,-8407.7,-12131.5,-12730.3,4741,-12114.4,-12238.6
-7685.1,-6875,-8411.9,-12140.9,-12748.3,4739,-12122.8,-12263.5
-7698.5,-6888.9,-8419.7,-12157.3,-12773.1,4739.3,-12132.9,-12290.8
-7715.1,-6906.2,-8430.7,-12179.3,-12803.7,4741,-12144.6,-12328.4
-7720.8,-6907.6,-8434.9,-12189.9,-12819.4,4740.5,-12150.8,-12356.3
-7722.6,-6894.9,-8432,-12180.2,-12816.8,4740.1,-12146.9,-12344.1
-7714.9,-6874.6,-8423.3,-12163,-12797.7,4739.2,-12139.2,-12312.9
-7699.4,-6845.8,-8413.1,-12137,-12767.7,4739.1,-12127.8,-12277.1
-7689.5,-6820.8,-8406.5,-12114.4,-12745.4,4740.3,-12119.6,-12253
-7706.1,-6827.8,-8414.6,-12109.6,-12748.7,4743.2,-12122.2,-12248.8
-7721.7,-6841.1,-8423.2,-12118.2,-12767.4,4745.4,-12130.4,-12270.5
-7735.2,-6861.6,-8428.3,-12139.3,-12795.9,4746.2,-12140.6,-12306.7
-7745.9,-6875.4,-8430.7,-12158.1,-12825.9,4743.4,-12151.3,-12343.9
-7744.4,-6865,-8427.6,-12155.3,-12836.3,4742.8,-12155.4,-12351.1
-7736.4,-6844.6,-8421.6,-12141.6,-12823.8,4742.1,-12150.4,-12331.1
-7725.2,-6815.3,-8415.2,-12120.5,-12795.4,4739.6,-12140,-12296.4
-7714.3,-6788.1,-8412.7,-12096.3,-12761.7,4738.9,-12127.8,-12256.9
-7718.4,-6786.4,-8416.1,-12086.5,-12749.7,4739.9,-12124.5,-12243.8
-7724.3,-6789.8,-8416.7,-12088.5,-12760.2,4738.5,-12130.9,-12259.2
-7733.9,-6801.7,-8419.3,-12101.4,-12785.5,4736.4,-12142.3,-12291.9
-7752.4,-6826.1,-8427.1,-12126.9,-12821.4,4737.8,-12154.3,-12333.8
-7760.2,-6834.9,-8430,-12139.9,-12840.8,4738.2,-12160.5,-12357.1
-7754.1,-6823.4,-8426.4,-12136.2,-12836,4736.7,-12157.5,-12349.2
-7748.7,-6807.7,-8424.5,-12126.8,-12816.4,4736.6,-12149.2,-12323.7
-7743.5,-6790.2,-8423.4,-12111.5,-12784.8,4737.1,-12136.7,-12280.7
-7735,-6774,-8420.1,-12097.1,-12762.1,4737.1,-12128.8,-12256.4
-7736.7,-6770.3,-8423.2,-12089.5,-12756.2,4739.2,-12126.5,-12256.1
-7747.9,-6786.7,-8430.9,-12099.5,-12768.3,4740.5,-12131.4,-12275.4
-7764.7,-6813.3,-8437.2,-12118.4,-12796.7,4740.1,-12143.7,-12308.4
-7778,-6836.3,-8443.4,-12143.8,-12831.9,4740.6,-12157.6,-12348.1
-7776.3,-6837.3,-8442.4,-12149.4,-12841.2,4740.5,-12159,-12358.2
-7764.4,-6822,-8438.2,-12137.2,-12827.2,4739,-12154.1,-12342.8
-7741,-6785.8,-8428.1,-12107.5,-12783,4738.8,-12138,-12291.5
-7732.3,-6772.2,-8422.9,-12091.8,-12758.8,4738.9,-12129.2,-12263.2
-7730.6,-6771,-8419.9,-12085.3,-12748,4739.6,-12126.5,-12253
-7737.2,-6779,-8422.7,-12088.8,-12754.4,4739.9,-12131,-12267.2
-7740.3,-6789.4,-8425.5,-12102.5,-12768.1,4739.1,-12139.3,-12296.1
-7755.5,-6810.5,-8432.4,-12121.4,-12797.4,4738.1,-12150.5,-12325.1
-7769.2,-6830,-8438.1,-12139.1,-12826.8,4734.9,-12162.8,-12355.2
-7767.7,-6824.7,-8437.7,-12137.7,-12827.7,4733.7,-12161.9,-12353.1
-7758.9,-6808.9,-8433.3,-12123.7,-12811.1,4734.7,-12152.6,-12331.9
-7754.2,-6802.3,-8429.5,-12112.6,-12787.9,4735.5,-12143.2,-12293.5
-7745.4,-6792.4,-8425.5,-12102.7,-12762.4,4735.7,-12134.1,-12266
-7745.3,-6791.8,-8426.2,-12097,-12754.3,4736.9,-12131.5,-12260.6
-7754.7,-6800.9,-8431.9,-12103.4,-12767,4736.3,-12136.3,-12278.1
-7769.8,-6822.1,-8441.6,-12123.1,-12794.4,4737,-12146.4,-12314.1
-7782.4,-6840.2,-8448.6,-12143.6,-12826.7,4739.5,-12157.6,-12350
-7780.4,-6838.6,-8447,-12146.4,-12832.4,4738.2,-12158.5,-12353.4
-7769.6,-6825.5,-8441.2,-12135.4,-12816.9,4737.5,-12151.7,-12334.1
-7762.7,-6814.1,-8436.7,-12123.4,-12796.3,4738.8,-12142.4,-12306.3
-7753.1,-6792.9,-8434.3,-12106.8,-12766.9,4737.9,-12131.4,-12271.3
-7750.5,-6784.2,-8435.6,-12097.2,-12753.3,4737.9,-12127.9,-12256.2
-7757.1,-6794.6,-8437.6,-12101.3,-12758.7,4740,-12129.9,-12264.3
-7765.7,-6811.9,-8441.7,-12115.6,-12775.3,4742.1,-12135.7,-12287.7
-7776.1,-6833.4,-8445.8,-12137.5,-12803.6,4743.2,-12145.8,-12324.3
-7781.8,-6848,-8446.9,-12154.3,-12826.8,4744,-12153.4,-12347.5
-7777.2,-6847.2,-8441.9,-12154.2,-12830.7,4742.7,-12154.1,-12343
-7764.5,-6832.2,-8437.3,-12142.7,-12816.9,4743,-12146.9,-12323.3
-7753.2,-6806.3,-8435.5,-12118.9,-12785.7,4745.4,-12133.3,-12286.4
-7748.8,-6786.7,-8429.8,-12098.1,-12758.5,4746,-12123.3,-12255.4
-7753.2,-6790.7,-8430.1,-12096.6,-12755.8,4744.2,-12125.1,-12253.2
-7763.7,-6806.5,-8437.7,-12109,-12771.5,4744.6,-12131.2,-12274.4
-7771.2,-6822.6,-8442.5,-12123.8,-12796.4,4742.8,-12141.2,-12306.7
-7776.6,-6836.2,-8446.5,-12140.1,-12818.6,4743.8,-12148.5,-12335
-7775.3,-6836,-8446.1,-12145.8,-12824.2,4743.7,-12150.2,-12344.1
-7768.8,-6827.8,-8441.4,-12140.8,-12822.3,4741.2,-12150.1,-12335.5
-7756.1,-6806.9,-8433.8,-12121.5,-12800.4,4736.7,-12144.4,-12304.2
-7745.3,-6789.6,-8428.2,-12103.2,-12773.3,4733.3,-12136,-12278.7
-7736.1,-6778.6,-8426.1,-12095.8,-12751.2,4734,-12128.2,-12270.3
-7740.6,-6786.4,-8429.4,-12098.9,-12745.6,4736,-12124.6,-12261.1
-7756.7,-6814.4,-8437.7,-12115.8,-12767.7,4736.8,-12132.6,-12285.5
-7773.9,-6840,-8446.9,-12137.1,-12799.7,4739,-12143.6,-12324.2
-7785.3,-6850.2,-8452.5,-12152.7,-12827.9,4738.9,-12152.9,-12356.3
-7787.7,-6849.5,-8449.7,-12153.1,-12833.8,4738.8,-12154,-12349.6
-7777.3,-6834.6,-8442.4,-12142.4,-12821.6,4737,-12149.8,-12334.7
-7758.8,-6805.5,-8432.8,-12117.4,-12789.9,4734.9,-12139.4,-12296.7
-7747.9,-6785.9,-8429.1,-12096.9,-12763.5,4736.3,-12130.3,-12264.6
-7747.3,-6783.1,-8428.6,-12090.1,-12753.6,4738.8,-12126.7,-12256.1
-7754.4,-6798.2,-8430.4,-12098.1,-12764.4,4740.5,-12131.4,-12273.3
-7761.4,-6816.9,-8434.3,-12115,-12785.5,4739.3,-12139.4,-12303.5
-7769.7,-6836.7,-8440.1,-12136.5,-12812.2,4738.4,-12149.9,-12338.2
-7775.7,-6853.3,-8441,-12153.2,-12830,4739.4,-12155.9,-12354.1
-7768.4,-6846.7,-8436.7,-12151.6,-12822.4,4739,-12152.7,-12341.6
-7760.7,-6830.2,-8433.5,-12138.1,-12801.6,4737.4,-12145.9,-12315.3
-7751.4,-6805.9,-8431.5,-12117.9,-12775.3,4732.6,-12140,-12281.4
-7745.4,-6790,-8430.2,-12104.8,-12755.2,4731.2,-12135.3,-12261.5
-7748.8,-6796.2,-8431.4,-12105.5,-12757.1,4730.5,-12137.9,-12267.5
-7761,-6817.4,-8439.5,-12115.6,-12774.3,4730.9,-12144.8,-12291.8
-7779.7,-6844.2,-8444.8,-12134.2,-12806.4,4733.1,-12156,-12323.6
-7790.7,-6861.9,-8447.7,-12156.6,-12838.4,4735.1,-12165.9,-12356.8
-7788.4,-6857.6,-8448,-12160.6,-12842.3,4733.9,-12166.3,-12361.4
-7776.3,-6837.6,-8441.5,-12142.9,-12823.2,4730.2,-12159.7,-12338.6
-7763.8,-6813.9,-8436.2,-12118.4,-12793.1,4729.2,-12148.7,-12301.8
-7753.8,-6794.9,-8434.8,-12098.6,-12765.3,4731.2,-12137.6,-12271.2
-7751.1,-6792.5,-8435.5,-12093.9,-12758.8,4732.9,-12136.2,-12267.1
-7753.6,-6804.6,-8435.7,-12103.6,-12768.1,4734.3,-12139.8,-12282.8
-7755.7,-6811.6,-8434.8,-12111.9,-12773.4,4734.8,-12142.6,-12295
-7775.6,-6843.4,-8442.1,-12144.9,-12819.3,4732,-12162.6,-12350.8
-7779.4,-6851.2,-8442.8,-12159.3,-12833.4,4734.8,-12164.7,-12363
-7773.5,-6844.9,-8441,-12154.7,-12821.9,4737.6,-12158,-12348.4
-7756.3,-6818.4,-8436.7,-12138.2,-12795.6,4737,-12149.6,-12323.9
-7745.8,-6790,-8432.1,-12111,-12759.3,4738.9,-12133.4,-12272.7
-7746.5,-6789.4,-8430.7,-12097.3,-12740.3,4740.4,-12124.6,-12249.6
-7750,-6798.4,-8431.8,-12098.1,-12746.3,4738.7,-12128.3,-12262.3
-7756.7,-6809.4,-8434.8,-12106.4,-12767.3,4739.9,-12136.4,-12289.5
-7776.6,-6837.9,-8442.9,-12127.5,-12803.1,4737.4,-12152.7,-12322.3
-7788.6,-6858.2,-8448.7,-12148.2,-12833.4,4736.6,-12164.8,-12356.6
-7789.5,-6855.6,-8449.8,-12156.5,-12839.7,4738.5,-12164.1,-12361
-7781.7,-6846.3,-8448.1,-12153.9,-12824.5,4737.1,-12157,-12341.3
-7768.6,-6827.8,-8442.4,-12136.7,-12794.7,4737.6,-12144.4,-12302.9
-7755.7,-6806.9,-8436.5,-12112,-12765.1,4737.7,-12134.4,-12264.7
-7754.6,-6796.7,-8435.2,-12099.3,-12754.2,4737.4,-12131.7,-12253.6
-7758.7,-6798.2,-8438.3,-12103,-12761.9,4736.2,-12136.8,-12265.2
-7772.2,-6822.2,-8447,-12122.1,-12788.4,4737.9,-12147.4,-12297
-7784.4,-6849.7,-8452.9,-12147.9,-12821.9,4738.9,-12159,-12338.1
-7788.4,-6860.6,-8453.3,-12160.2,-12841.4,4736.6,-12165.6,-12361.5
-7783.7,-6852.8,-8449.6,-12152.8,-12835.7,4737.8,-12161,-12351.3
-7774.3,-6831.7,-8444.6,-12134.5,-12809.1,4739.9,-12148.9,-12318.9
-7763.8,-6805.3,-8440,-12111.2,-12776.8,4740.4,-12137.7,-12281.5
-7757.4,-6789.8,-8436.5,-12093.9,-12749.8,4743,-12126.9,-12249.9
-7760.5,-6795.8,-8436.9,-12092.1,-12748.9,4743.5,-12127.2,-12247.2
-7765,-6812.4,-8439.7,-12108.1,-12772.2,4741.9,-12136.9,-12279
-7775.7,-6837.2,-8447.4,-12133.8,-12804.2,4742.2,-12147.8,-12322.9
-7787.4,-6857.1,-8453,-12155.6,-12832,4744.5,-12156.1,-12355.8
-7788.2,-6857.8,-8450.7,-12160.7,-12839.1,4742.9,-12158.5,-12356.4
-7780.5,-6844.5,-8446.3,-12154.3,-12825.5,4740.4,-12152.9,-12337.9
-7765.5,-6821.7,-8439.4,-12134.5,-12795.2,4741.1,-12140.2,-12302.1
-7749.3,-6797.4,-8432.2,-12107.6,-12758,4741,-12126.6,-12261.7
-7742.8,-6785.6,-8431.2,-12090.8,-12735.1,4739.7,-12120.9,-12242
-7754.5,-6801.7,-8436.7,-12101.4,-12751.9,4741.5,-12128,-12265
-7767,-6819.9,-8443,-12116.9,-12775.8,4744,-12136.6,-12293.4
-7780.3,-6841.5,-8450.3,-12138.4,-12807.9,4744.6,-12149.1,-12333.7
-7778.4,-6842.6,-8450.5,-12149,-12822.9,4742.2,-12155.3,-12359.3
-7771.9,-6829.2,-8446.5,-12144.9,-12815.7,4741.3,-12150.4,-12339.9
-7765,-6817.9,-8442,-12132,-12798.5,4742.6,-12142.5,-12312.1
-7753.4,-6800.5,-8436.2,-12111.1,-12772,4744.2,-12130.7,-12280.2
-7749.2,-6790.5,-8436.6,-12097.1,-12754.6,4746,-12122.4,-12262.4
-7759.5,-6802.8,-8442.5,-12097,-12753.6,4746.2,-12123.4,-12255.5
-7768.3,-6817.4,-8446.2,-12109.5,-12770,4745.1,-12132.6,-12276.9
-7779.7,-6836,-8449.8,-12128.7,-12797.8,4745.5,-12143.3,-12313
-7787.6,-6852.1,-8452.1,-12145.7,-12823.7,4748.3,-12151.4,-12343.3
-7783.6,-6850.9,-8448.4,-12148.9,-12830.9,4748.3,-12153.5,-12349.3
-7772.6,-6835.3,-8442.6,-12137,-12815.7,4748.2,-12146.3,-12330
-7757.7,-6809.4,-8437.2,-12112.8,-12783.2,4747.7,-12134,-12291.3
-7746.3,-6787.6,-8435.6,-12092.6,-12750.7,4747.8,-12122.3,-12253.4
-7748.8,-6790.1,-8433.7,-12090.1,-12742,4749.2,-12119.8,-12243.6
-7754.3,-6800.2,-8435.9,-12098.6,-12751.8,4749.1,-12124.5,-12258
-7763.2,-6818.5,-8441.3,-12116.5,-12775.5,4751,-12133.6,-12288.9
-7775.6,-6841.9,-8446.3,-12139.1,-12808.1,4751,-12145.2,-12326.3
-7780.9,-6855.1,-8447.4,-12154.9,-12829.6,4750.6,-12152.2,-12350.5
-7775,-6848,-8443.2,-12149.6,-12823.3,4750,-12148.4,-12340.8
-7764.1,-6830.6,-8438.1,-12131.8,-12799.5,4749.2,-12139.1,-12311.2
-7756.5,-6811.2,-8433.4,-12108.9,-12769.2,4749.6,-12127.3,-12269.7
-7749.5,-6797.5,-8431.3,-12095.2,-12752.2,4747.7,-12122.2,-12250.9
-7751.1,-6797.4,-8433.7,-12093.7,-12751.2,4747.7,-12123.6,-12254.6
-7759.5,-6810.3,-8438.6,-12103.9,-12764.9,4749.6,-12128.5,-12273.9
-7773,-6830.9,-8445.2,-12122.9,-12792.1,4751.3,-12138.1,-12304.7
-7782.1,-6847.5,-8449.3,-12143.2,-12821.4,4750.9,-12148.6,-12338.2
-7784.1,-6849.3,-8449.9,-12149,-12829.5,4751.3,-12150.5,-12346.1
-7774.1,-6835.4,-8445.1,-12139.5,-12814.1,4749.9,-12144.5,-12327.3
-7754.6,-6806.3,-8437.1,-12116.6,-12777.6,4749.6,-12129.9,-12287.1
-7743.5,-6790,-8430.9,-12101,-12752.3,4749.9,-12120.2,-12257.3
-7740.9,-6786.9,-8429.6,-12097.3,-12740.9,4749.7,-12116.8,-12244.1
-7745.9,-6796.2,-8432.6,-12103.3,-12749,4749.5,-12122.3,-12258.6
-7749,-6806.6,-8435.5,-12113.9,-12765,4748.1,-12130.6,-12290.8
-7762.9,-6823.8,-8442,-12129.2,-12794.6,4747.7,-12141.3,-12321.4
-7772,-6836.3,-8444.6,-12141.4,-12820.6,4745.8,-12152.2,-12344.8
-7768.4,-6829.5,-8442.4,-12138.2,-12821.7,4744.9,-12150.9,-12342.3
-7757.9,-6811.6,-8436.3,-12124.3,-12807.3,4743,-12144.6,-12325.7
-7753.5,-6798.5,-8432.3,-12107.1,-12781,4743.4,-12134.4,-12287.1
-7744.6,-6782.6,-8428.8,-12092.4,-12754.1,4744.5,-12122.8,-12259.2
-7744.6,-6784.4,-8428.8,-12092.1,-12752.9,4744.5,-12123.9,-12264
-7750.8,-6797.5,-8430.5,-12104.7,-12768,4743.7,-12131.7,-12283.9
-7760,-6814.4,-8436,-12124.1,-12792.6,4742.8,-12142.2,-12313.1
-7769.9,-6830.9,-8443.7,-12145.1,-12821.3,4742.9,-12152.2,-12348.2
-7769.1,-6829.1,-8441.3,-12148.9,-12829.1,4743,-12153.2,-12355.9
-7753.9,-6809,-8431.7,-12133.8,-12812.9,4741.5,-12147.9,-12332.5
-7743.2,-6793.5,-8425.6,-12116.6,-12792.8,4741.1,-12140.8,-12304.2
-7731.5,-6769.9,-8419.9,-12096.9,-12765.5,4739.6,-12132.1,-12271.5
-7729.7,-6756.1,-8419.9,-12088.8,-12753.4,4739.8,-12129.6,-12258.2
-7732.9,-6761.8,-8421.6,-12096.8,-12763.3,4740,-12135,-12270.6
-7736.9,-6769.2,-8422.7,-12103.1,-12782.4,4739.6,-12143.5,-12295.7
-7747.1,-6786.2,-8426.1,-12116.7,-12812.7,4739,-12155.1,-12333.7
-7749.4,-6792.7,-8425.5,-12125.2,-12834.2,4736.5,-12163.5,-12358.1
-7748.9,-6782.7,-8422.3,-12118.2,-12834.9,4735.9,-12164.3,-12350.4
-7739.7,-6765.3,-8417.5,-12108.4,-12825,4735.5,-12160.3,-12334.9
-7721.1,-6735.4,-8408.5,-12086.1,-12794.7,4734.6,-12147.7,-12300
-7709.8,-6714,-8403.1,-12066.4,-12767.9,4735,-12137.6,-12270.1
-7712.1,-6710.5,-8405.5,-12060.7,-12759.8,4735.9,-12135.6,-12261.2
-7718.9,-6717.9,-8408.9,-12070.7,-12773.6,4735.3,-12141.6,-12281.2
-7730,-6734.5,-8415,-12093.6,-12802.4,4734.5,-12153.4,-12317.6
-7739,-6754.7,-8418.2,-12118.5,-12833.1,4733.1,-12165.7,-12356.3
-7726.9,-6750.9,-8411.2,-12120.9,-12838.8,4732.6,-12167.3,-12364.1
-7711,-6728.5,-8401.4,-12105.3,-12833.5,4731.3,-12165.1,-12352.1
-7693.4,-6692.3,-8390.7,-12076.4,-12808.3,4731,-12155.8,-12317.1
-7678.1,-6659.1,-8381.8,-12048.9,-12774.6,4730,-12145.1,-12279.4
-7668.6,-6642.2,-8380,-12036.1,-12757.9,4727.4,-12142.1,-12276
-7673.7,-6644.3,-8383.1,-12035.5,-12761.5,4728.1,-12143.2,-12278.6
-7684,-6657.6,-8385.4,-12045.3,-12781,4728.7,-12151.6,-12298.4
-7695,-6678.2,-8391.4,-12067.8,-12817,4728.1,-12165.3,-12342.5
-7699.6,-6688.3,-8396.4,-12083.1,-12843.1,4728.8,-12173.6,-12374.3
-7702.2,-6691.2,-8393.6,-12083.2,-12847.1,4729.2,-12173.8,-12366.4
-7691.1,-6676.7,-8387.2,-12074,-12833.5,4727.2,-12169.4,-12347.4
-7678.9,-6656.4,-8380.9,-12062.4,-12806,4725.3,-12159.1,-12313.8
-7671.4,-6642.9,-8374.9,-12046.9,-12780.5,4724.2,-12150.5,-12283.3
-7669.1,-6640.6,-8372.6,-12037.3,-12771.6,4725.3,-12147.1,-12275.9
-7675.1,-6654,-8376.5,-12044.1,-12782.2,4727.1,-12150.8,-12291.6
-7688.4,-6670.7,-8384.5,-12057.9,-12805.8,4726.7,-12160.6,-12321.7
-7698.8,-6685.3,-8389.6,-12074.3,-12832.7,4727,-12170,-12355.8
-7704.2,-6694.4,-8389.7,-12082.6,-12848.4,4726.6,-12175.5,-12369.3
-7698.5,-6687.4,-8385.8,-12080.5,-12840.4,4725.3,-12172.8,-12356
-7689,-6676.2,-8383.1,-12076.3,-12822.1,4723,-12167,-12333
-7681.1,-6660.8,-8380.2,-12057.6,-12795.2,4721.8,-12158.1,-12299
-7678.1,-6654.4,-8380.3,-12042.5,-12772.8,4723.8,-12149,-12276.5
-7684.1,-6665.9,-8388.4,-12046.2,-12773,4727.1,-12147.5,-12282.8
-7694.9,-6685.7,-8396,-12059.7,-12786.9,4729,-12151.9,-12302.6
-7711.5,-6713.6,-8401.7,-12079.7,-12814.8,4729.5,-12162.6,-12333.6
-7725.8,-6738.8,-8406.5,-12103.9,-12846.2,4729,-12173.8,-12371.2
-7723,-6738,-8402.3,-12105.4,-12846.9,4730,-12171.6,-12369.6
-7712,-6724.7,-8397.1,-12091.7,-12830.7,4728.2,-12165.3,-12347.4
-7702.2,-6705,-8393.4,-12070.7,-12802.9,4728.9,-12154.1,-12309.7
-7694.8,-6690.1,-8391.6,-12055.8,-12777.2,4728.4,-12145.4,-12279.1
-7697.6,-6696.1,-8395.7,-12057.8,-12773.9,4727.2,-12147,-12279.1
-7707.1,-6709.4,-8402.2,-12069.4,-12779.2,4727.6,-12149.8,-12290
-7714.9,-6722.4,-8407.7,-12082.9,-12789.5,4727.3,-12154.8,-12308.8
-7731.9,-6752.3,-8415.3,-12106.6,-12826.3,4728.7,-12168.1,-12350.6
-7742.1,-6769.5,-8418.8,-12120.9,-12846.6,4731.5,-12172.8,-12370.7
-7737.1,-6764.1,-8415.7,-12115.7,-12834.6,4733,-12166.6,-12357.4
-7720,-6741.5,-8408.7,-12095.3,-12803.4,4731.4,-12155,-12329.6
-7708.8,-6720.9,-8404.5,-12070.6,-12767.6,4731,-12139.7,-12281.5
-7712.7,-6723,-8407.3,-12066.7,-12755.1,4730.3,-12136,-12264.7
-7721.3,-6735.9,-8416.4,-12076.2,-12759.4,4730.1,-12137.6,-12275.5
-7728.7,-6751.8,-8422.8,-12092.9,-12776.1,4729.9,-12144.2,-12302.2
-7751.3,-6792.1,-8429.9,-12122.2,-12813.6,4730.6,-12159.5,-12339.5
-7759.9,-6816.8,-8431.2,-12140,-12840.7,4731.4,-12167.9,-12371.5
-7756.4,-6816,-8427.8,-12137.5,-12842.9,4732.9,-12166.2,-12371
-7746.9,-6798.3,-8422.4,-12120.8,-12826.1,4732.4,-12158.5,-12347.4
-7733.5,-6773.7,-8417.2,-12097.8,-12794.9,4732,-12145.8,-12309.1
-7725.2,-6759.2,-8415.2,-12081.6,-12766.2,4732.3,-12135.7,-12276.9
-7722.1,-6756.9,-8415.4,-12077.1,-12753.7,4731.8,-12133,-12265.5
-7727.5,-6766.2,-8419.9,-12084.8,-12759.8,4731.8,-12137.7,-12277
-7746.3,-6792.9,-8428.3,-12106.6,-12790.5,4732.6,-12150.1,-12313.5
-7760.2,-6815.9,-8434.5,-12129.8,-12823.5,4733,-12161.8,-12351.7
-7764.8,-6824.6,-8438.3,-12142.8,-12839.6,4734.6,-12165.5,-12368.3
-7762.3,-6824.1,-8440.2,-12145.6,-12837.3,4735.8,-12162.8,-12361.1
-7750.1,-6806.2,-8434.4,-12133.7,-12810.8,4736.1,-12151.2,-12328.6
-7735.7,-6783.5,-8427.4,-12113.4,-12776.2,4735.2,-12138.8,-12289.1
-7728.3,-6773,-8423.5,-12097,-12752.7,4734.5,-12132.3,-12263.7
-7737.4,-6784.8,-8425.6,-12096.3,-12755.6,4736.8,-12135.4,-12265.4
-7745.6,-6800.8,-8428.3,-12107.7,-12778.8,4738,-12143.5,-12294.8
-7755.8,-6819.9,-8436.1,-12125.7,-12807.4,4738,-12154.6,-12333
-7764.3,-6836.4,-8442.9,-12143.9,-12833.9,4737.5,-12164.6,-12364.5
-7765,-6838.7,-8441,-12148.6,-12840.4,4738.6,-12165,-12365.8
-7755.6,-6826.1,-8434.8,-12138.8,-12825.5,4737.7,-12158.8,-12344.1
-7743.7,-6806.1,-8428,-12120.4,-12797.9,4735.8,-12148,-12311.4
-7729.9,-6781.9,-8421.3,-12096.8,-12762,4734.2,-12134.7,-12270.1
-7722.8,-6770,-8419.9,-12084.6,-12743,4732.3,-12129.8,-12253.1
-7732.6,-6782.8,-8425.2,-12095.3,-12761,4732.5,-12138,-12276.3
-7745.2,-6800.3,-8430.3,-12113.6,-12787.1,4734.3,-12147.4,-12306.5
-7759.7,-6824.6,-8436.9,-12139,-12820.6,4735,-12159.9,-12350.6
-7756.7,-6827.5,-8436.4,-12149.9,-12835.9,4732.5,-12167,-12379.5
-7750,-6815.3,-8433,-12138.5,-12826.7,4735,-12160,-12358.7
-7744.5,-6805.8,-8429.9,-12122.1,-12807.6,4735.6,-12150.8,-12329.1
-7732,-6787.6,-8424.1,-12102.3,-12780.5,4735.4,-12139.6,-12296.2
-7720,-6769.4,-8419.8,-12084.9,-12757.7,4735.9,-12131.4,-12273.1
-7730.1,-6778.6,-8424.4,-12084.3,-12756.1,4737.9,-12131.3,-12265.9
-7742.4,-6795.7,-8429.4,-12101,-12778.6,4737.4,-12142.4,-12294.5
-7753.8,-6814.5,-8435.6,-12123.9,-12809,4735.3,-12155.5,-12333.3
-7760.7,-6832,-8439.1,-12142,-12836.5,4734.5,-12165.6,-12366.3
-7754.3,-6828.3,-8435,-12144,-12841.7,4735.7,-12165.7,-12370.4
-7743.4,-6811.7,-8428.3,-12132.8,-12829.1,4735.2,-12160.1,-12353.2
-7731.9,-6784,-8423.4,-12109.5,-12796.1,4734,-12146.9,-12311.4
-7717.7,-6756.1,-8417.2,-12084.4,-12761.2,4732.2,-12135.1,-12271.7
-7721.2,-6753.9,-8417.7,-12077.4,-12758.5,4729,-12137.8,-12269.6
-7726.9,-6758,-8419.8,-12081.1,-12770.6,4725.9,-12145.2,-12285.1
-7733.8,-6773.9,-8423.1,-12096.2,-12795.8,4724.2,-12157.4,-12318.7
-7743.4,-6797.4,-8427.1,-12119.3,-12831.5,4724.3,-12171.5,-12360.6
-7741.9,-6800,-8426,-12130.3,-12850.6,4724.8,-12176.6,-12381.2
-7733.3,-6784.9,-8420.6,-12124.6,-12847.4,4724.6,-12173.4,-12373.8
-7721.5,-6760.8,-8412.4,-12105.5,-12824.5,4723.8,-12164.7,-12341.6
-7710.4,-6732.9,-8404.6,-12079.2,-12791.7,4723.1,-12153.1,-12296.9
-7700.2,-6714.8,-8401.9,-12063.8,-12771.9,4721.9,-12147.5,-12276
-7700.3,-6715.2,-8403.3,-12064.2,-12774.7,4722.2,-12149.7,-12283.9
-7707.7,-6723.8,-8405.5,-12075.1,-12792.3,4723.2,-12156.8,-12306.9
-7716.5,-6740.8,-8407.6,-12093.4,-12821.9,4724,-12167.7,-12340.8
-7722.9,-6751.1,-8409.2,-12112.2,-12856.7,4723.3,-12181,-12380.9
-7717.9,-6735.1,-8404.4,-12108.8,-12858.5,4723.3,-12180.2,-12381.4
-7704,-6707.1,-8394.6,-12089.6,-12835,4722.6,-12171,-12353.9
-7685.3,-6672.3,-8385.3,-12065.7,-12801.3,4719.1,-12160.8,-12315.9
-7679.4,-6652.5,-8385.5,-12053.7,-12781.1,4716.5,-12155.8,-12291.2
-7679.2,-6645.5,-8385.3,-12048.3,-12771.3,4715.4,-12153.9,-12280.4
-7684.8,-6655.4,-8386.2,-12053,-12781.5,4715.7,-12159.1,-12299.9
-7684.7,-6663.4,-8386.1,-12059.7,-12802.9,4714.7,-12169.4,-12337.1
-7690,-6675,-8386.9,-12070.3,-12829.7,4712.4,-12178.6,-12362.6
-7691.7,-6684.7,-8385.2,-12079.4,-12849.4,4713.5,-12184.6,-12381.3
-7682.6,-6673.5,-8376.9,-12074.4,-12849.1,4713.4,-12182.8,-12381.2
-7668.7,-6647.2,-8369.4,-12056.9,-12831,4713.6,-12174,-12361.3
-7663.3,-6627.1,-8367,-12034.6,-12800.8,4713.4,-12162.5,-12314.7
-7659.1,-6615.8,-8364,-12022.8,-12780.5,4712.3,-12157.1,-12292
-7660.1,-6615.1,-8364.1,-12023.7,-12778.6,4712.8,-12158.4,-12293.8
-7666.6,-6625.7,-8367.6,-12036.2,-12794.5,4712.3,-12165.7,-12315.2
-7678.6,-6645.5,-8373.9,-12057.4,-12823.3,4711.8,-12177.1,-12350.9
-7690.6,-6661.4,-8380.6,-12077.7,-12851.7,4712.6,-12186.8,-12382.8
-7689.3,-6659.5,-8380.1,-12081.3,-12857.2,4713,-12187.1,-12385.5
-7676.3,-6641.6,-8374.5,-12067.6,-12838.3,4713.6,-12178.2,-12359.6
-7667.7,-6627.7,-8369.8,-12053.1,-12817.3,4713.5,-12170.9,-12329.5
-7657.2,-6613.6,-8365,-12037.5,-12791.9,4713.9,-12161.7,-12298.2
-7653.3,-6608.2,-8363.6,-12023.9,-12776.4,4715.7,-12156.1,-12283.6
-7662.7,-6620.2,-8368.4,-12029.5,-12785,4716.1,-12160.8,-12295.6
-7676.6,-6638.7,-8376.4,-12045.9,-12804.1,4716.6,-12168.4,-12321.1
-7690.6,-6662.2,-8385,-12069.2,-12834.7,4717.9,-12179.5,-12358.5
-7697,-6674.3,-8386.8,-12082.8,-12855.6,4717.3,-12187.2,-12380.4
-7697.3,-6673.4,-8385.6,-12079,-12853.6,4716.9,-12185.8,-12367.9
-7690.8,-6665.2,-8382,-12071.1,-12840.9,4715.8,-12181.4,-12350.4
-7677.4,-6648.7,-8375.9,-12053,-12808.4,4716.8,-12167.6,-12314.6
-7670.7,-6639.1,-8376.5,-12042.1,-12782.8,4717.4,-12157.8,-12286.2
-7675.7,-6648,-8386,-12048.5,-12778.2,4718.2,-12157.3,-12282.1
-7686.9,-6666.4,-8392.6,-12062.4,-12793.7,4719.7,-12164,-12302.3
-7698.7,-6690.4,-8394.2,-12083.2,-12820.3,4720.5,-12174,-12335.2
-7707.6,-6710.5,-8396.4,-12097.8,-12844.7,4719.2,-12182.6,-12366.1
-7706.1,-6710.3,-8396.7,-12096.7,-12845.5,4719.1,-12180.8,-12369.6
-7705.7,-6711.4,-8397,-12094.4,-12840.6,4721,-12175.8,-12362
-7699.9,-6701,-8394.6,-12079.6,-12816.2,4721.6,-12165.5,-12331
-7688.8,-6682.9,-8390.3,-12057.3,-12778.8,4721.6,-12152.2,-12290.3
-7680.9,-6676.9,-8388.1,-12049.5,-12757.8,4722.4,-12146.2,-12279.3
-7688.6,-6691.2,-8392.2,-12055.8,-12763.8,4724.7,-12146.5,-12283.2
-7702.6,-6715.2,-8398.8,-12072.9,-12786.9,4725.9,-12154.2,-12308
-7716.2,-6738.7,-8405.7,-12095.3,-12816.5,4727.1,-12164.7,-12344.9
-7725.9,-6754.3,-8413.1,-12111.7,-12839.2,4728.5,-12170.9,-12374.7
-7731.1,-6763.3,-8415,-12112.8,-12839.5,4729.6,-12169.5,-12363.1
-7727,-6755,-8411.9,-12105.5,-12824.9,4730.3,-12163.3,-12343
-7714.1,-6734.2,-8403.7,-12085.5,-12792.9,4730.6,-12151,-12303.7
-7710.8,-6729.1,-8401.9,-12076.8,-12772.1,4730.4,-12143.8,-12280
-7713.3,-6730.4,-8407.2,-12074.3,-12763.5,4731.3,-12140.6,-12273.3
-7719.5,-6742.1,-8411.6,-12082.5,-12772.7,4732.5,-12144.5,-12287.9
-7729.9,-6763.3,-8416.6,-12101.3,-12796,4734.1,-12153.1,-12317.6
-7743,-6781.2,-8423.4,-12116.6,-12819.7,4735.1,-12161,-12345.8
-7754,-6794.3,-8426.6,-12125.5,-12835,4735.9,-12165,-12359.8
-7748.5,-6788.8,-8424.7,-12121.7,-12826.6,4736.9,-12159.5,-12345.3
-7738,-6775.4,-8420.8,-12110.4,-12805.3,4736.8,-12150.7,-12318.4
-7727.7,-6760.1,-8417.3,-12092,-12773.8,4738.7,-12137.1,-12280
-7725.6,-6753.6,-8418.1,-12080.7,-12754.3,4740.2,-12130,-12260.5
-7731.9,-6762.1,-8422.1,-12083.1,-12757.4,4740.1,-12134,-12265.9
-7741.9,-6781.6,-8426.7,-12098.3,-12774.3,4741.3,-12140.5,-12287.7
-7758.6,-6807.8,-8433.3,-12122.1,-12805.9,4740.2,-12153.2,-12323.7
-7768.8,-6826.4,-8440.2,-12144.9,-12837.2,4740.2,-12164.2,-12360
-7766.9,-6823.6,-8439.3,-12146.8,-12838,4740.9,-12163,-12357.1
-7758.6,-6809.1,-8434.6,-12134.5,-12819.4,4739.4,-12156.6,-12331.8
-7747.7,-6789.2,-8429.4,-12113.9,-12789.4,4738.9,-12145.3,-12292.8
-7741,-6776.5,-8426.9,-12097.5,-12763.8,4738.6,-12137,-12264.4
-7742.7,-6779.6,-8430.9,-12094.1,-12757.3,4738.2,-12135.9,-12262.3
-7750.3,-6791.1,-8437.7,-12102.5,-12770,4737.5,-12141.5,-12280.5
-7757.7,-6803.6,-8444.7,-12115.5,-12788.1,4737.3,-12149.3,-12304.7
-7773.8,-6831.5,-8451.4,-12144.1,-12825.3,4737.8,-12162.9,-12347.9
-7779.8,-6840.4,-8450.3,-12155.8,-12837.8,4739.1,-12165.5,-12359.8
-7771.1,-6829.8,-8444.9,-12147,-12827.5,4737.8,-12161.9,-12346.6
-7751.5,-6806.7,-8436.8,-12128.7,-12798.7,4736.1,-12151.1,-12322
-7737.4,-6787.2,-8428.6,-12106.5,-12764,4735.7,-12136.3,-12277
-7735.5,-6780.1,-8426.7,-12094.9,-12747,4735.9,-12131.1,-12256.4
-7741,-6784.6,-8430.8,-12096.8,-12751.2,4737.7,-12133.7,-12264.6
-7749.9,-6798.7,-8435.8,-12108.8,-12773.2,4737.3,-12142.2,-12295.2
-7772.5,-6829.6,-8445.8,-12131.5,-12807.2,4736.9,-12155.6,-12326.6
-7783.1,-6849.3,-8451.4,-12151.8,-12837.2,4737.5,-12165.9,-12359.2
-7778.6,-6846.7,-8448.7,-12153.4,-12840.6,4738,-12165.7,-12360.2
-7768.1,-6832,-8443.2,-12142.7,-12826.1,4736.9,-12158.6,-12340.7
-7753.1,-6805.9,-8435.7,-12120.2,-12792.1,4736.7,-12145.3,-12298.7
-7743.6,-6789.4,-8431.1,-12101.1,-12762.3,4737.4,-12135.3,-12264.5
-7742.1,-6787.2,-8431.3,-12095.4,-12751.6,4736.3,-12132.8,-12257.5
-7747.2,-6796.5,-8437,-12102.4,-12757.7,4737.5,-12135.4,-12271
-7764.1,-6823,-8444.7,-12123.3,-12784.1,4740,-12145,-12303.2
-7778.6,-6846.8,-8450.8,-12146.4,-12817.5,4740.7,-12157.2,-12341
-7781.8,-6853.8,-8452,-12157.3,-12837.1,4738.3,-12165.7,-12361.2
-7776.9,-6848.3,-8448.9,-12154.1,-12831,4737.9,-12162.4,-12351
-7765.5,-6831.4,-8444.6,-12138.4,-12803.9,4738.7,-12150.6,-12318.5
-7752.8,-6811,-8439.5,-12117,-12772.9,4737.9,-12139.8,-12281.4
-7747.5,-6799.8,-8437.8,-12101.1,-12750.6,4737.9,-12132.7,-12255.9
-7756.1,-6808.2,-8441.4,-12103.3,-12752.6,4738.9,-12134.3,-12256.3
-7765.7,-6826.2,-8446.2,-12120.6,-12777.7,4739.5,-12144.5,-12288.4
-7777.1,-6847.4,-8452.4,-12142.7,-12809.5,4740.2,-12156,-12328.6
-7786.5,-6863.3,-8456.5,-12161.4,-12833.8,4742.6,-12162.3,-12354.6
-7785.6,-6862,-8454.5,-12163.8,-12835.6,4744.2,-12159.7,-12350.9
-7776.1,-6846,-8449.8,-12152.7,-12817.6,4743.8,-12152,-12328.4
-7761.4,-6823.7,-8444.1,-12133.7,-12791.2,4741.1,-12143.7,-12297.1
-7748.9,-6802.8,-8442.1,-12114.4,-12761.4,4740.3,-12133.8,-12264.7
-7743.9,-6793.7,-8442.5,-12104.3,-12743.7,4742.2,-12128.1,-12249
-7753.4,-6807.6,-8444.7,-12110.8,-12755.6,4744.9,-12131.5,-12264.5
-7766,-6825.7,-8448.9,-12124.6,-12780.6,4742.9,-12142.7,-12295.2
-7778.7,-6848.3,-8456.6,-12148.3,-12813.1,4743,-12156.5,-12335.6
-7776.4,-6852,-8456.8,-12158.6,-12828,4742.5,-12162,-12360.3
-7770,-6841.4,-8452,-12151,-12820.7,4741.9,-12155.9,-12343.4
-7761.9,-6825.3,-8446.6,-12133.9,-12796.7,4741.7,-12145.8,-12310.4
-7750.4,-6804.4,-8440.3,-12110.7,-12766.1,4740,-12135,-12276.2
-7743.8,-6792.9,-8437.6,-12095.8,-12747.2,4738.6,-12129.3,-12258.3
-7758.9,-6811.3,-8445.8,-12101.5,-12752.8,4739.9,-12133,-12258.6
-7771.8,-6831.6,-8453.6,-12119.3,-12773.5,4739.5,-12142.6,-12285.5
-7783,-6852.2,-8458.6,-12140.3,-12804.3,4737.4,-12156.2,-12324.4
-7790.3,-6868.4,-8461.5,-12158.7,-12832.3,4737.8,-12165.4,-12356.1
-7785.5,-6865.6,-8458.6,-12161.6,-12835.6,4738.3,-12164.3,-12358.2
-7776.6,-6852.7,-8454.1,-12152.6,-12819.6,4739.5,-12157.2,-12336.5
-7764,-6832.2,-8447.2,-12132.7,-12786.8,4739.9,-12144.1,-12298.1
-7749.9,-6809.5,-8441.1,-12111.4,-12751,4740.1,-12130.3,-12259.4
-7751.1,-6809.3,-8443.1,-12106.8,-12741.8,4740.8,-12128.3,-12249.2
-7759.2,-6822.9,-8449.5,-12116.8,-12755,4741.4,-12134.4,-12265.7
-7772.6,-6843.3,-8456,-12135.9,-12783,4742.4,-12144.9,-12299.1
-7786.8,-6866.1,-8460.5,-12160.1,-12818.9,4741.6,-12158.3,-12339.9
-7789.9,-6870.7,-8460.4,-12170.1,-12835.9,4739.6,-12164.8,-12357.8
-7785.2,-6861.3,-8457.7,-12163.9,-12829,4739.4,-12161.1,-12346.9
-7777,-6845.9,-8452.9,-12146.4,-12807.3,4741,-12151.5,-12317.2
-7767.4,-6825.3,-8446.2,-12121.4,-12775.9,4738.8,-12140.4,-12275.3
-7760.3,-6815,-8444.8,-12109.4,-12758.2,4738.3,-12135.6,-12256.2
-7760.7,-6819.7,-8447.1,-12111.7,-12757.8,4740.4,-12135.5,-12261.9
-7767.6,-6833.6,-8450.7,-12124.2,-12771.8,4741.1,-12140.1,-12283.4
-7781.1,-6856.8,-8457.6,-12144.7,-12803,4740.9,-12152.1,-12320.2
-7789,-6870.1,-8461.5,-12160.8,-12829.9,4739.6,-12162.7,-12351.9
-7788.6,-6870.2,-8459.7,-12166.8,-12837.9,4739,-12165,-12359.6
-7780.6,-6856.5,-8455.5,-12158.8,-12822.9,4739.1,-12158,-12340.6
-7761.6,-6827.5,-8447.4,-12134.2,-12785.8,4738.6,-12144,-12298.1
-7748.1,-6807.6,-8443,-12111.2,-12754.6,4738.3,-12132.6,-12261.5
-7749.8,-6808.9,-8445.3,-12104.8,-12745.4,4741.1,-12128.9,-12254.5
-7755.1,-6818.1,-8447.6,-12109.2,-12749.5,4744.9,-12130,-12267.1
-7759.5,-6829.1,-8448.9,-12124.5,-12765.6,4745.8,-12137.5,-12299.3
-7773.9,-6850.4,-8454.6,-12146.4,-12796.5,4745.1,-12148.5,-12330.5
-7783.1,-6863.3,-8459,-12159.3,-12816.9,4744.8,-12155.2,-12348.2
-7777.3,-6855.2,-8457.3,-12154.9,-12814.4,4744.3,-12152.3,-12341.9
-7767.3,-6838.4,-8453.6,-12141,-12798.8,4744.1,-12144.5,-12323
-7763.1,-6824.5,-8448.6,-12122.5,-12770,4745.5,-12132.9,-12277.6
-7757,-6812.4,-8443.4,-12108.8,-12747.7,4744.1,-12125.8,-12254.7
-7758.7,-6815.6,-8445.1,-12108.9,-12747.5,4744.1,-12127.5,-12258.1
-7767.8,-6831.3,-8449.9,-12123.3,-12766.2,4745,-12135,-12280.5
-7780.7,-6852,-8456.5,-12144,-12795.9,4744.7,-12146.4,-12315.9
-7789.2,-6868.7,-8460.8,-12162.2,-12821.7,4745.9,-12154.4,-12347.2
-7786.8,-6866.9,-8459.2,-12165.7,-12828.1,4744.7,-12155.8,-12352.9
-7774.9,-6849.5,-8454.5,-12153.3,-12812.5,4742.9,-12150.2,-12331.5
-7766.1,-6831.9,-8450.2,-12133.6,-12786.3,4744.1,-12139.4,-12295.6
-7757.6,-6814,-8446,-12114.9,-12758.4,4744.5,-12129.1,-12263.6
-7754,-6808.5,-8444.8,-12105.2,-12744.6,4744,-12125.3,-12252.1
-7763,-6821.2,-8449.7,-12113.7,-12756.4,4744.4,-12131.3,-12267.9
-7771.9,-6836.7,-8455.3,-12129.7,-12777.9,4742.8,-12141,-12295.9
-7782.8,-6856.2,-8462,-12152,-12807.3,4741.9,-12152.5,-12333.3
-7791,-6867.2,-8468.3,-12165.7,-12828.7,4742.3,-12159.5,-12354.7
-7790,-6862,-8465,-12161.4,-12823.5,4744.2,-12155.6,-12338.9
-7780,-6850,-8457.2,-12150.7,-12809.3,4742,-12150.3,-12322.3
-7763.2,-6827.5,-8448,-12128.9,-12779.1,4740.2,-12139.3,-12290.5
-7754.4,-6813.1,-8443.8,-12110.9,-12751.7,4740.5,-12129.8,-12262.4
-7757.4,-6816.5,-8445.6,-12108.3,-12748.2,4740.4,-12129.4,-12259.4
-7763.7,-6828.9,-8450.1,-12119,-12764.6,4742.1,-12135.9,-12280.4
-7773.7,-6849.7,-8455.3,-12138.3,-12795,4742.6,-12147.4,-12318.7
-7781.2,-6862.8,-8458.9,-12154.1,-12818.6,4743.4,-12155,-12347.6
-7776.8,-6857,-8456.1,-12154.3,-12819.1,4743.7,-12153.3,-12350.2
-7767.6,-6844.6,-8450.7,-12145.1,-12808.3,4743.7,-12147.2,-12333.3
-7757.2,-6825.1,-8444.5,-12127.3,-12781.4,4744.6,-12136.1,-12298.8
-7746.6,-6807,-8440.1,-12108.5,-12754,4745.6,-12126.4,-12270
-7735.9,-6791.9,-8438.8,-12097.3,-12731.8,4746.3,-12120,-12257.1
-7742.7,-6799.1,-8443.7,-12103.4,-12736.1,4747.4,-12121,-12260.4
-7755.6,-6818.2,-8450.6,-12118.3,-12759.3,4746.3,-12130.9,-12285
-7770.1,-6844.3,-8457.5,-12141.9,-12796.1,4746.8,-12144.4,-12329.7
-7774.9,-6854.9,-8458.8,-12154.6,-12819,4747.7,-12150.7,-12355.5
-7779.8,-6855.2,-8459.3,-12152.5,-12818.5,4749,-12149.5,-12340.9
-7775,-6845,-8455.7,-12146.1,-12809.2,4746.9,-12147.2,-12328.6
-7760.1,-6822.7,-8449.8,-12128.3,-12780.4,4745.3,-12137.1,-12294.9
-7747.9,-6804.2,-8445.8,-12108.8,-12750.2,4745.8,-12125.4,-12260.3
-7746.4,-6803.8,-8443.5,-12104.4,-12742,4746.9,-12122.7,-12254.9
-7754.8,-6819.8,-8444.5,-12115.4,-12756.8,4748.9,-12128.7,-12274.2
-7765.5,-6835.4,-8449.8,-12130.5,-12780.4,4749.3,-12138.4,-12302
-7776.5,-6853.3,-8456,-12151.7,-12811.9,4748.4,-12150.6,-12340.7
-7780.8,-6858.2,-8456.1,-12155.4,-12823.4,4747.8,-12153.6,-12349.6
-7774.2,-6848.6,-8451.9,-12146.8,-12813.7,4748.1,-12147.9,-12335.5
-7761.3,-6827.9,-8445.8,-12129.9,-12786.9,4749,-12136.8,-12302.1
-7748.9,-6804.8,-8441.5,-12109.2,-12754.7,4749.7,-12124.6,-12260.4
-7748,-6800.4,-8443.8,-12102.5,-12742.9,4749.5,-12120.8,-12250.8
-7752.3,-6806.8,-8447.9,-12105.6,-12747.3,4749.7,-12122.8,-12261.1
-7761.9,-6822.3,-8451.3,-12116.4,-12762.8,4750.7,-12128.6,-12281.1
-7779,-6848.2,-8457.5,-12136.3,-12791.8,4752.2,-12139.1,-12311.1
-7784.9,-6863.2,-8459.7,-12155.5,-12826.3,4747.7,-12155.3,-12347.3
-7778.2,-6855.7,-8456.4,-12156.6,-12827,4747.6,-12153.9,-12347.3
-7769.2,-6840.4,-8453.3,-12145.2,-12807.3,4750.7,-12142.6,-12322.6
-7759.3,-6819.3,-8449,-12124.9,-12777.4,4750.8,-12130.7,-12282
-7751.7,-6805.4,-8446.7,-12109.7,-12756.5,4745.8,-12126.5,-12258.6
-7750.1,-6804.3,-8445.8,-12105.3,-12753.3,4742,-12129.6,-12258.6
-7754.5,-6810.1,-8448.8,-12111.1,-12755.5,4742.3,-12131.4,-12266
-7762.9,-6823.1,-8454,-12124.3,-12774.2,4742.4,-12139.4,-12294.5
-7779.9,-6851.3,-8460.5,-12151,-12814.7,4743.8,-12153.2,-12342.2
-7783,-6856.1,-8460.6,-12158.9,-12824.1,4744.6,-12154.4,-12349.8
-7774.4,-6844.4,-8456.3,-12151.1,-12810.8,4744.6,-12149,-12334.8
-7757.2,-6822.2,-8449.2,-12134.4,-12783.8,4743.9,-12138.8,-12314.1
-7744.9,-6797.1,-8443.9,-12108.4,-12751.1,4743.9,-12125.4,-12267.2
-7745,-6792.8,-8445.8,-12098.8,-12737.7,4743.7,-12121.8,-12247
-7750.1,-6802.9,-8447.8,-12103.5,-12742.5,4745.9,-12122.5,-12256.2
-7760.9,-6823.6,-8452.3,-12121.1,-12767.5,4748,-12131.1,-12290.1
-7781.6,-6852.1,-8460.8,-12143.2,-12800.1,4750.4,-12143.2,-12319.7
-7790,-6866.3,-8466.2,-12159.3,-12826.1,4749.6,-12153.9,-12348.3
-7784.4,-6859.5,-8466.4,-12158.9,-12828.5,4746,-12155.9,-12348.7
-7775.9,-6843.2,-8460.7,-12146.7,-12814,4743.1,-12151.3,-12328.8
-7763.1,-6820.8,-8452.4,-12127.2,-12782.5,4745.2,-12137.6,-12290.1
-7752.3,-6802.5,-8446,-12109.1,-12751.5,4744.8,-12127,-12255.7
-7753.3,-6802.1,-8447.1,-12106.8,-12745.5,4745,-12126.6,-12253.8
-7756.6,-6809.9,-8450.4,-12112.4,-12750.6,4746.3,-12129.9,-12263.1
-7772.9,-6833.9,-8457,-12128.8,-12778.6,4742.7,-12142.9,-12297.9
-7785.7,-6854.2,-8462.6,-12147.8,-12811.1,4739.4,-12156.1,-12339.3
-7789.9,-6865.1,-8464.8,-12159.9,-12833.3,4738.8,-12163.9,-12362.1
-7783.3,-6855.2,-8461.7,-12151.5,-12825.4,4737.6,-12159.8,-12346.7
-7772.2,-6835.7,-8457.9,-12133.8,-12801.4,4738.3,-12149.5,-12317.1
-7758.3,-6814,-8451.8,-12112.6,-12766.8,4739.9,-12135.4,-12276.2
-7751.7,-6801.3,-8448,-12097.7,-12744.2,4736.5,-12129.9,-12253.5
-7758.7,-6806.2,-8449.8,-12099.2,-12746.9,4736.1,-12133,-12256.4
-7768.7,-6823.7,-8454.3,-12119,-12773.1,4737.2,-12143.7,-12290.3
-7779.3,-6843.1,-8458.9,-12140.4,-12805.3,4737.9,-12156,-12331.2
-7785.5,-6858.1,-8462.3,-12156.2,-12828,4741.2,-12161.2,-12357.7
-7783,-6855.7,-8460.2,-12156.8,-12826.3,4744.4,-12156.9,-12351
-7773.3,-6838,-8454.4,-12142.2,-12810.9,4744.7,-12150.3,-12328.7
-7757.9,-6816.2,-8445.7,-12120.4,-12785.4,4743.6,-12141.3,-12296.6
-7743.7,-6792.1,-8439.4,-12095.8,-12747.3,4745.6,-12127.3,-12252.7
-7741.2,-6784.4,-8440.2,-12086.1,-12727.5,4747.6,-12121.1,-12234.4
-7754.8,-6805.8,-8446.8,-12102.7,-12748.6,4747.4,-12129.1,-12263.9
-7765.1,-6823,-8450.5,-12117.9,-12772.2,4746.7,-12138.7,-12294.7
-7774.6,-6840.9,-8456.3,-12136.9,-12804,4745,-12153.5,-12335.6
-7771.9,-6841.6,-8458.1,-12147.2,-12818.4,4744,-12159.8,-12360.8
-7765.6,-6830.1,-8454.9,-12141.5,-12810.3,4744.5,-12153.4,-12341.6
-7758.3,-6815.8,-8449.5,-12126.9,-12785,4745.9,-12142.2,-12305
-7746.7,-6798,-8444.2,-12107.3,-12753.6,4746.7,-12129.4,-12265.6
-7740.5,-6787.2,-8442.6,-12096,-12739.6,4744.7,-12125.3,-12253.3
-7751.5,-6797.6,-8445.6,-12095.1,-12745.6,4744.3,-12130.3,-12253.8
-7761.8,-6812.2,-8451.5,-12106.5,-12766,4743.9,-12139.2,-12280.3
-7775.4,-6831.6,-8458.8,-12127.5,-12796.4,4744.9,-12149.3,-12318.5
-7787.5,-6850.1,-8464.5,-12147,-12824.7,4747.2,-12157.2,-12351.2
-7783.3,-6847.5,-8462.1,-12146.5,-12827.1,4748.1,-12155.5,-12348.8
-7769,-6830.1,-8453.8,-12131.4,-12809.1,4747.6,-12146.8,-12324.6
-7752.6,-6805.2,-8444.4,-12107.9,-12776.2,4746.3,-12133.9,-12286.5
-7741.9,-6784.3,-8440.1,-12087.4,-12744.5,4744.6,-12124.7,-12250.8
-7746.2,-6785.9,-8443.9,-12083.1,-12738.4,4743.3,-12125.9,-12244
-7754.9,-6798,-8449.7,-12093.5,-12752.2,4741.5,-12133.4,-12264.3
-7767.6,-6821.3,-8456.9,-12116.3,-12781,4740.5,-12145.3,-12304.8
-7781.4,-6846,-8464.9,-12143.8,-12814.9,4742.3,-12157.2,-12343.4
-7784.8,-6852.6,-8466.9,-12159.3,-12828,4742.8,-12160.5,-12356.8
-7778.4,-6844.3,-8465.1,-12153.4,-12818,4743.4,-12154.1,-12342.8
-7769.6,-6827.7,-8459.2,-12134.8,-12797.4,4743,-12145.5,-12313.6
-7760,-6805,-8449.6,-12106.5,-12766.8,4740.1,-12135.2,-12271.7
-7754,-6794.2,-8445.6,-12092.9,-12750.5,4738,-12132.1,-12256.2
-7756.8,-6796.9,-8447.7,-12094.2,-12751.3,4737.8,-12134.8,-12261.7
-7766,-6810.9,-8453.7,-12108,-12769.8,4738.9,-12142.6,-12284.5
-7779.9,-6835.1,-8461.3,-12129.2,-12802.5,4739.5,-12154.8,-12319.9
-7786.1,-6849.8,-8463.2,-12148.7,-12830.3,4736.8,-12165.4,-12352.6
-7782,-6847.8,-8458.6,-12155.5,-12834.8,4736.4,-12166,-12357.8
-7769.9,-6831,-8452,-12142.1,-12816.6,4737.1,-12158.4,-12336.4
-7749.3,-6800.4,-8442.9,-12114.4,-12775.4,4737.8,-12141.9,-12291.4
-7743.6,-6785.6,-8442.7,-12096.1,-12751.4,4736.8,-12133,-12262.7
-7746.6,-6784.7,-8446.2,-12090.9,-12742.2,4736.7,-12130.7,-12253.2
-7752.4,-6797,-8449.2,-12107.8,-12755.2,4735.4,-12138.1,-12273.6
-7755.3,-6806.5,-8451.9,-12122.4,-12771.3,4734.9,-12145.6,-12305
-7770.1,-6830.3,-8457.9,-12138.7,-12801.2,4738.3,-12154.4,-12335.2
-7779.2,-6845.6,-8459.8,-12147.6,-12822.5,4740.2,-12161,-12352
-7772,-6837.6,-8455.4,-12138.7,-12817.2,4739.8,-12157.4,-12341.1
-7758.3,-6818.2,-8449.1,-12121.7,-12798.2,4735.7,-12150.4,-12319.3
-7756.7,-6808.3,-8445.8,-12105.2,-12775.4,4735.2,-12142.5,-12284.5
-7752.6,-6794.8,-8443.6,-12091.7,-12750.1,4738,-12131.9,-12256.7
-7755.1,-6794.7,-8447.4,-12091.6,-12751.4,4734.9,-12135.7,-12260.1
-7762.9,-6810.4,-8452.6,-12104.3,-12771.7,4734.5,-12144.2,-12284.5
-7776.1,-6833.2,-8458.9,-12125.7,-12803,4735.9,-12155.3,-12323
-7784.5,-6847.5,-8462.3,-12141.7,-12827.7,4737.4,-12162.8,-12351.4
-7780.2,-6841.7,-8459.8,-12143.1,-12830.2,4737.1,-12162.2,-12350.6
-7771,-6826.5,-8456.2,-12133.4,-12812.8,4736.4,-12155.2,-12328.4
-7763.7,-6814.5,-8451.8,-12120.3,-12787.9,4736.2,-12146.8,-12295.6
-7751.5,-6795.4,-8446.9,-12102,-12757,4738.4,-12135.3,-12256.5
-7749.2,-6790.3,-8447.2,-12094.5,-12745.1,4741,-12131.7,-12244.4
-7760.2,-6803.1,-8451.6,-12101.5,-12759.4,4740.8,-12138.8,-12264
-7768.8,-6817.7,-8454.7,-12113.7,-12782.6,4738.6,-12147.7,-12296.2
-7777.3,-6835.6,-8459,-12133.8,-12810.5,4739.6,-12157.1,-12332
-7781.7,-6846.1,-8460,-12147.1,-12827.9,4740.1,-12162.5,-12351.5
-7782,-6842.7,-8458.1,-12142.6,-12823.4,4741.4,-12158.9,-12337.1
-7773.4,-6828,-8454.6,-12130.3,-12808.8,4742.2,-12152.3,-12315.8
-7759,-6802.7,-8448.3,-12108.4,-12777.2,4743,-12139.5,-12278.6
-7753.8,-6789.2,-8446.1,-12093,-12753.8,4742.9,-12132.1,-12252.1
-7760.1,-6796.5,-8449.1,-12096,-12755.4,4739.6,-12135.4,-12256.1
-7766.4,-6810.9,-8455.1,-12111,-12772.2,4738.5,-12143.3,-12279.9
-7775,-6829,-8460.5,-12127.5,-12798,4739.8,-12152.6,-12313
-7782.6,-6845.2,-8461.9,-12144.5,-12826.2,4739.5,-12163.4,-12350.3
-7773.6,-6837.8,-8456.7,-12143.8,-12822.7,4741,-12159.6,-12345.4
-7768.7,-6830.1,-8453.4,-12140.1,-12814.5,4739.6,-12156.3,-12331.9
-7758.4,-6810,-8447.1,-12122.9,-12789.3,4737.7,-12149,-12299.2
-7744.9,-6789.7,-8441,-12100.2,-12757.7,4736.2,-12139.2,-12265.2
-7736.4,-6781.5,-8438.3,-12090,-12742.1,4734.1,-12135.6,-12263.8
-7739.6,-6786.4,-8439.3,-12091.9,-12747.6,4733.9,-12136.9,-12269
-7751.4,-6805.5,-8445.2,-12106.2,-12772,4733.8,-12146.6,-12295.5
-7765.3,-6827.1,-8452.6,-12126.3,-12805.5,4734.4,-12158.8,-12336.3
-7775,-6837.5,-8457.7,-12139.2,-12829.2,4734.8,-12165.5,-12364.4
-7780,-6839.5,-8458.3,-12138.2,-12827.4,4735.2,-12163.8,-12349.5
-7772.6,-6826.7,-8455.1,-12130.5,-12810.4,4735.5,-12156.6,-12328.8
-7757,-6802.6,-8448.3,-12110.9,-12778.1,4736.3,-12143.1,-12291.1
-7744.8,-6787.1,-8443.8,-12096.3,-12753.2,4736,-12134.9,-12261.9
-7744.9,-6788.4,-8444.9,-12095.3,-12751.6,4733.7,-12137.6,-12263
-7753.6,-6800.4,-8449.7,-12103.6,-12770.3,4731,-12148.2,-12288.5
-7763.6,-6815.5,-8453.5,-12118.9,-12795.2,4731.5,-12158.5,-12321.1
-7772.4,-6832.3,-8457.4,-12136.1,-12819.7,4732.6,-12166.1,-12352
-7776.6,-6843.3,-8458.6,-12144.3,-12833,4732.6,-12169.7,-12362.8
-7767.6,-6832.8,-8454.1,-12135.7,-12822.9,4731,-12164.4,-12346.8
-7755.6,-6810.5,-8446.7,-12117,-12798.3,4728.9,-12155.8,-12316.5
-7745.9,-6792.3,-8440.5,-12098.8,-12769.4,4729.4,-12144.5,-12282.5
-7741.8,-6784.4,-8439.8,-12091.8,-12752.4,4732,-12138.4,-12263.5
-7745.9,-6787.7,-8443.9,-12099.6,-12758.4,4731.8,-12144.2,-12272.3
-7755.2,-6801.3,-8446.4,-12110.6,-12776.5,4733.4,-12151.8,-12293.8
-7770.9,-6827.6,-8450.2,-12128,-12808.6,4734.8,-12162.8,-12329
-7776.2,-6844.7,-8452.6,-12143.4,-12835.6,4737,-12171.2,-12358.7
-7768.2,-6837.7,-8450.4,-12137.6,-12833.5,4734.4,-12169.9,-12353.7
-7756.6,-6820.5,-8445.1,-12120.8,-12812.5,4733.7,-12160.3,-12328.4
-7748,-6801.6,-8440.6,-12101.6,-12784.9,4734,-12149.3,-12294.5
-7743.2,-6785,-8439.8,-12084.4,-12760.9,4734.5,-12140.4,-12265.9
-7746.4,-6784.1,-8442.8,-12082.5,-12755.8,4733.9,-12140.1,-12263.9
-7751.1,-6793,-8446,-12091.9,-12765.3,4734.9,-12144.5,-12280.1
-7758,-6808.4,-8450.3,-12108.5,-12784.6,4735.3,-12153.4,-12309.4
-7771.6,-6832.5,-8456.5,-12132.1,-12817.4,4737.5,-12163.9,-12347.7
-7772.6,-6835,-8456.1,-12136.7,-12825.1,4738.8,-12164.2,-12352.7
-7768.1,-6828.3,-8453.9,-12130.8,-12814.8,4739.7,-12159,-12342.2
-7751.9,-6804.8,-8447.2,-12113.7,-12785.2,4738.9,-12148.2,-12316.5
-7739.2,-6776.9,-8440.3,-12087,-12749,4739.7,-12133.5,-12263.8
-7741.5,-6775.1,-8441.6,-12079.5,-12737,4741.2,-12129.2,-12246.7
-7750,-6788.3,-8447,-12087.7,-12749.3,4742,-12134.2,-12264.3
-7757.3,-6800.9,-8451.1,-12098.8,-12768.7,4742.7,-12140.6,-12290.4
-7779.3,-6834.7,-8460,-12125.8,-12805.4,4741,-12155.2,-12325.8
-7788.3,-6853.2,-8463.7,-12149.5,-12831.9,4740.3,-12165,-12358.6
-7783.5,-6847.9,-8461.6,-12152.2,-12829.6,4740.6,-12162.1,-12355.1
-7773.8,-6832.9,-8457.8,-12140.2,-12811.5,4739.5,-12154.8,-12330.1
-7759.9,-6808.8,-8450.5,-12118.8,-12781.9,4735.9,-12146.3,-12293.7
-7751.9,-6793.7,-8448.4,-12101.1,-12760.4,4734.4,-12140.8,-12269.1
-7748,-6788.3,-8449.5,-12091.4,-12749.2,4734.5,-12137.6,-12258.6
-7752.5,-6797.6,-8453.1,-12098.5,-12755.3,4735,-12140.2,-12271.5
-7770.7,-6827.3,-8460,-12121.7,-12787.4,4735.2,-12153,-12310.3
-7783.5,-6851,-8464.8,-12144,-12820.7,4735,-12164.8,-12349.3
-7784.7,-6856.3,-8465,-12151.4,-12832.5,4735,-12166.7,-12362.2
-7778.4,-6848.3,-8461.8,-12144.5,-12822.8,4735.5,-12160.3,-12348
-7766.5,-6831.9,-8456.3,-12129.6,-12798.5,4735.6,-12149.6,-12318.4
-7751.5,-6810.3,-8449.8,-12109.8,-12763.8,4736.5,-12136.6,-12279.6
-7745.7,-6798.4,-8447.6,-12096.4,-12740.8,4738,-12129.6,-12253.7
-7755.6,-6809.6,-8451.4,-12100.3,-12746.4,4738.9,-12132.4,-12256.6
-7767.1,-6830.6,-8458.1,-12120.5,-12774.5,4738,-12143.3,-12293.7
-7777.7,-6847,-8464.6,-12139.2,-12802.5,4738.1,-12153.4,-12331.5
-7786.1,-6855.4,-8468.3,-12153,-12825.5,4739.1,-12160.8,-12357.5
-7784.9,-6851.7,-8467.4,-12151.3,-12826.2,4740.5,-12158.8,-12352.5
-7775,-6836,-8462.9,-12139.3,-12810.6,4738.9,-12152.9,-12332.5
-7758.5,-6808.9,-8453.2,-12116.4,-12779.9,4737.1,-12142.6,-12295.9
-7744.9,-6787.5,-8446.4,-12095.2,-12747.5,4738.6,-12132.1,-12256.9
-7740.2,-6779,-8445.8,-12085.3,-12728.7,4739.9,-12127,-12240.8
-7750,-6795.9,-8450,-12097.6,-12746,4740.2,-12132.8,-12264.8
-7762.5,-6819.6,-8455.8,-12117.3,-12775.3,4741.3,-12142.6,-12302.4
-7773.5,-6839.9,-8461.5,-12138,-12807.3,4741,-12155.9,-12343.7
-7772.1,-6839.9,-8461,-12145.7,-12819,4739.3,-12162.1,-12365.4
-7767,-6829.2,-8457.9,-12135.3,-12807.8,4741.4,-12154.8,-12342.7
-7755.8,-6811.8,-8451,-12117.1,-12784.5,4741.7,-12145.5,-12308.5
-7743.3,-6791.2,-8445.4,-12098.2,-12758.2,4740,-12137,-12277.7
-7735.2,-6778.3,-8442.9,-12084.2,-12738.2,4739.7,-12129.2,-12259.3
-7750.4,-6801.3,-8449.4,-12092.6,-12747.1,4740.4,-12134.5,-12263.3
-7759,-6819.5,-8453.2,-12109.3,-12764.8,4740.2,-12142.6,-12287.1
-7770.3,-6840.4,-8459.7,-12132.2,-12796.9,4740.5,-12155.5,-12328.9
-7779.9,-6854.5,-8464.7,-12147.7,-12823.5,4742.3,-12163.9,-12357.2
-7777.2,-6849,-8463.4,-12145.6,-12823.4,4742.6,-12161.7,-12351.6
-7769.5,-6835.6,-8459.4,-12133.8,-12808.1,4742.8,-12154.6,-12330.9
-7753.9,-6810,-8451.6,-12110.7,-12773.3,4743.6,-12140.8,-12289
-7741,-6786.5,-8447.6,-12090,-12738.6,4743.8,-12128.8,-12248.4
-7752.2,-6792.4,-8453.4,-12091.1,-12737.1,4745,-12129.2,-12247
-7769.4,-6809.9,-8463,-12106.1,-12752.9,4745.5,-12135.1,-12267.4
-7787.1,-6837.9,-8472.9,-12129.3,-12778.7,4745.1,-12145,-12301
-7798.2,-6866.7,-8478.6,-12154.8,-12809.9,4745.4,-12156.6,-12337.4
-7793.2,-6873.5,-8474.5,-12164,-12824.1,4744.8,-12161,-12354.8
-7773.6,-6854,-8461.6,-12151.6,-12816.1,4744.5,-12157.8,-12342.6
-7752.3,-6820.7,-8450,-12125.7,-12793.7,4741.5,-12150.4,-12310.9
-7741.9,-6798.3,-8444.9,-12101.5,-12762.6,4739.5,-12140,-12268.8
-7740.2,-6797.6,-8446.7,-12097.8,-12747.8,4738.6,-12136,-12254.5
-7744.3,-6806.7,-8450.6,-12105.6,-12752.8,4737.4,-12139.5,-12266.8
-7751.5,-6818.7,-8453.5,-12117.5,-12770.3,4738,-12146.1,-12290.1
-7764.1,-6838.5,-8458.1,-12134.2,-12799,4737.7,-12157.2,-12323.2
-7777.8,-6861.5,-8464.6,-12158.1,-12830.3,4738.5,-12168.3,-12360.3
-7779.6,-6867.5,-8464.9,-12165.8,-12837.4,4739.5,-12167.9,-12366.5
-7763.7,-6844.2,-8457.2,-12146.7,-12807,4739.2,-12154.5,-12329.3
-7739.5,-6810.8,-8446.7,-12118.3,-12767.6,4736.5,-12141.4,-12286.3
-7727.6,-6793.2,-8442.1,-12101.1,-12748.2,4735.2,-12136.3,-12264.3
-7728.9,-6791.7,-8446.2,-12096.2,-12742.3,4735.8,-12136,-12258.5
-7736.2,-6805.5,-8450.6,-12105.9,-12751,4735.5,-12141.8,-12276.1
-7745.4,-6823.1,-8456.1,-12125.1,-12774.4,4735.1,-12152.3,-12317.8
-7759.5,-6842.8,-8461.2,-12142.9,-12800.9,4738.2,-12157.9,-12342.9
-7768.2,-6852.1,-8464.6,-12151.8,-12817.2,4740.2,-12161.3,-12353.5
-7763.1,-6842.9,-8460.1,-12144.6,-12811.3,4740.4,-12157.4,-12344.2
-7750.3,-6824.8,-8451.9,-12126.7,-12791.2,4740.5,-12148.1,-12321.6
-7744.6,-6810.4,-8446.5,-12105.7,-12762,4740.3,-12137,-12276.9
-7739.6,-6801.3,-8444.6,-12095.5,-12744.3,4739,-12132.8,-12257.2
-7745.8,-6806.5,-8450.1,-12099.9,-12746.8,4739.8,-12135.3,-12265.3
-7754.8,-6821.9,-8456.1,-12113.2,-12765.5,4741.1,-12142.1,-12290.2
-7764.7,-6842.1,-8460.9,-12133.2,-12795,4741,-12153,-12325.9
-7773.3,-6857.3,-8463.5,-12150.7,-12819.3,4740.7,-12161.4,-12355.5
-7770.4,-6854.7,-8461,-12154.2,-12822,4740.4,-12161.2,-12356.7
-7761.1,-6840.8,-8456.7,-12144.4,-12804.9,4741.4,-12153.3,-12333.3
-7753.3,-6825.1,-8452.7,-12127.2,-12778,4742.8,-12141.9,-12298.4
-7742.8,-6807.1,-8447.8,-12107.6,-12748.4,4742.3,-12130.8,-12264.6
-7741.3,-6804.7,-8447.8,-12101,-12738.1,4742.8,-12128.7,-12255.9
-7749.2,-6818.5,-8453.2,-12110.3,-12750.1,4743.5,-12134.5,-12272.8
-7758.9,-6837.3,-8458.2,-12127.2,-12772.9,4742.3,-12143.4,-12304.1
-7771.4,-6859.6,-8464.9,-12149.4,-12804,4741.8,-12154.8,-12344.3
-7776.3,-6867.2,-8466.4,-12161.3,-12818.1,4743,-12158.4,-12359
-7773.2,-6862.1,-8463.1,-12158.5,-12810.4,4743.3,-12153.8,-12341.9
-7763.7,-6846.7,-8457.7,-12146.8,-12793.7,4743.3,-12147,-12320.8
-7747.9,-6816.2,-8450.1,-12120,-12755.3,4743.9,-12132.4,-12275.1
-7733.4,-6788.6,-8443.5,-12093.1,-12714.8,4744.8,-12118.3,-12227.2
-7729.8,-6780.7,-8441.5,-12080,-12696,4743.7,-12113.2,-12207.8
-7752.2,-6817.1,-8453.4,-12108.1,-12740.3,4743.9,-12132.4,-12267.7
-7776.2,-6860.7,-8464.8,-12148.3,-12801.9,4745.5,-12155.4,-12344.1
-7781.2,-6871.5,-8466.5,-12164.1,-12828.1,4745.2,-12163.8,-12372.5
-7772,-6859,-8462.9,-12157.9,-12821.4,4743.3,-12161.4,-12362.7
-7768.1,-6855.8,-8460.9,-12156.3,-12820.8,4742.2,-12161.5,-12357.4
-7751.1,-6830,-8452.7,-12132.2,-12785,4742.2,-12146.7,-12309.1
-7737.3,-6805.9,-8447.1,-12106.5,-12748.1,4742.8,-12134.4,-12268
-7731.2,-6795.2,-8446.1,-12097.1,-12732.3,4742.9,-12131.9,-12262.7
-7741.2,-6805.1,-8451.2,-12103.3,-12742.3,4743.5,-12135.7,-12270.7
-7754.1,-6827.7,-8457,-12119.3,-12765.5,4742.1,-12145.5,-12296.4
-7767.1,-6851.7,-8462.2,-12140.9,-12798.8,4740.7,-12158.1,-12338.6
-7772.3,-6862.7,-8464.4,-12154.2,-12821.5,4740.7,-12164.5,-12367.5
-7776.1,-6866.2,-8464.4,-12153.6,-12820.8,4742.9,-12161.6,-12352.4
-7765.7,-6846.1,-8458.8,-12138.1,-12801.8,4741.8,-12154.1,-12326.3
-7749.5,-6817.4,-8451,-12114.4,-12768.1,4740.5,-12141.4,-12287.9
-7744.3,-6804.1,-8448.8,-12099.8,-12745.3,4742,-12133.2,-12261.4
-7747.1,-6805.8,-8450.8,-12098.8,-12743.1,4742.7,-12133.7,-12261.2
-7754.9,-6819.9,-8454.3,-12109.9,-12757.8,4743,-12140.4,-12281.7
-7764.9,-6839.6,-8460,-12129.5,-12785.4,4741,-12151.9,-12318.2
-7773.1,-6856.1,-8464.1,-12149.4,-12811.8,4741.2,-12162.4,-12350.7
-7774.6,-6861.5,-8462.2,-12157.1,-12821.6,4742.5,-12165.3,-12356.8
-7765.5,-6847.3,-8457.1,-12148.1,-12807.5,4743.6,-12157.8,-12336
-7755.7,-6827.5,-8453.6,-12131.7,-12783.5,4743.2,-12148.7,-12306.3
-7747.8,-6808.4,-8449.7,-12112.2,-12755.7,4742.8,-12138.8,-12273
-7742.5,-6798.4,-8447.7,-12100.8,-12738.6,4742.2,-12134.2,-12256
-7748.1,-6806,-8451.3,-12106.5,-12745.7,4742.5,-12138.7,-12267.1
-7759.1,-6824.1,-8456.9,-12121.7,-12768.4,4741.8,-12148.6,-12294.6
-7775.6,-6848.9,-8464.8,-12140.2,-12799.9,4741.3,-12161.1,-12327.5
-7783.6,-6865.8,-8469.5,-12157.1,-12829,4740,-12172.4,-12360.3
-7776.6,-6860,-8469.2,-12155.4,-12824.7,4741.4,-12168.2,-12354.6
-7766.4,-6844.9,-8463.6,-12141.8,-12806.5,4740.1,-12161.4,-12329.9
-7754.4,-6822.9,-8454.4,-12118.4,-12774.7,4739.4,-12149.3,-12289.7
-7746.9,-6806.1,-8451.3,-12102.2,-12747.4,4740.3,-12138.9,-12260.7
-7751.7,-6808.4,-8455.9,-12101.9,-12748.5,4740.3,-12140.6,-12264.9
-7759.4,-6820.7,-8460.4,-12111.9,-12762.5,4739.3,-12146.9,-12287.7
-7763.1,-6830.6,-8462.5,-12123.6,-12778.6,4737.9,-12153.9,-12313.1
-7774.3,-6852.7,-8468.1,-12146.1,-12813.2,4738.5,-12166.4,-12352.3
-7774.8,-6858.4,-8467.5,-12154.6,-12828.4,4738.8,-12170,-12365.7
-7764.1,-6842.1,-8462.2,-12142.6,-12811.4,4739.1,-12162.8,-12345.6
-7744.4,-6815,-8453.6,-12122.5,-12780.4,4736.2,-12153.1,-12318.8
-7735.2,-6795.4,-8448.4,-12100.6,-12748.4,4737.2,-12139.2,-12276.3
-7736.5,-6794.3,-8448.2,-12092.6,-12737.2,4737.8,-12136.6,-12260.8
-7742.1,-6802.2,-8451.5,-12097.9,-12746.3,4737.3,-12141.4,-12274.9
-7750.3,-6818.4,-8457.6,-12113.5,-12771.3,4736.7,-12151.4,-12308.1
-7772.9,-6852.2,-8468.2,-12138.5,-12809.8,4737,-12166.2,-12343.3
-7783.4,-6868.9,-8473,-12156.9,-12837,4737.5,-12175.8,-12373.6
-7781.2,-6861.9,-8471.6,-12156.6,-12834.8,4738.5,-12173.4,-12369.5
-7774,-6846.1,-8467.7,-12144.9,-12817.2,4739,-12165.5,-12345.5
-7756.6,-6816.3,-8458.6,-12118.8,-12778.8,4737,-12152,-12297.7
-7743.3,-6793.6,-8452.7,-12095.1,-12744,4734.5,-12140.8,-12258.4
-7742.9,-6792.1,-8453,-12091.2,-12738.2,4733.4,-12139.3,-12256.7
-7748.3,-6801.6,-8456.9,-12100.1,-12749.7,4734.4,-12143.4,-12274.8
-7765,-6829.9,-8465.6,-12123.1,-12781.6,4735.9,-12155.3,-12311.7
-7778.6,-6851.9,-8471.1,-12146.3,-12814,4736.7,-12165.7,-12348.5
-7782,-6859.4,-8471.5,-12155.8,-12828,4737.1,-12169,-12362.2
-7777.9,-6853,-8468.8,-12150.5,-12822,4735.8,-12165.7,-12349.7
-7765.1,-6832.1,-8461.9,-12132.4,-12795.9,4736.5,-12154.4,-12315.7
-7750.7,-6811.4,-8455.7,-12112,-12762.6,4738.2,-12140.8,-12277.1
-7745,-6804.1,-8454.6,-12101.1,-12745.1,4735.9,-12136.5,-12259.9
-7753.8,-6815.4,-8458.7,-12104.3,-12753.3,4733.4,-12143.1,-12266.5
-7765.7,-6834.1,-8464.6,-12122.2,-12778.6,4733.7,-12152.5,-12299.5
-7778.8,-6856.5,-8471.8,-12146.6,-12810.4,4735.2,-12163.4,-12341.3
-7787,-6871.8,-8476.8,-12165.5,-12832.3,4736.7,-12169.6,-12366
-7784.6,-6867.3,-8475.6,-12164.1,-12831.4,4736.8,-12167.7,-12358.4
-7774.5,-6850.9,-8469.4,-12149.6,-12814.8,4736.1,-12159.6,-12336.8
-7761,-6828,-8461.1,-12128.4,-12784.3,4735,-12147.6,-12303.2
-7750.5,-6810.4,-8456.3,-12110.9,-12755.5,4734.3,-12138.1,-12273.2
-7747.6,-6801.8,-8457.2,-12101.6,-12737.8,4736.4,-12133.5,-12258.8
-7759,-6815.9,-8464.9,-12112.7,-12754.2,4738.4,-12140.8,-12278.8
-7773,-6838.9,-8471.7,-12131.4,-12785.4,4736.7,-12154.2,-12316.1
-7783.2,-6859.1,-8476.5,-12151.3,-12815,4734.7,-12165.9,-12357.7
-7779.4,-6857.1,-8475.5,-12157.1,-12820.3,4734.8,-12167.9,-12374
-7774.1,-6844.8,-8471.1,-12147.7,-12807.9,4734.1,-12162.2,-12350.1
-7766.3,-6830.4,-8466.2,-12132.2,-12784.8,4734.6,-12152.5,-12316.9
-7752.5,-6809.3,-8460.6,-12111.3,-12752.7,4735.4,-12138.7,-12280.4
-7745.5,-6800.8,-8459,-12100.6,-12738.7,4736.7,-12133,-12268
-7758.4,-6817.7,-8464.3,-12106.2,-12746.8,4738.4,-12136.4,-12270.7
-7768.9,-6836,-8469,-12123.6,-12767.6,4740.2,-12144.6,-12298.3
-7779.1,-6854.7,-8474.1,-12145.1,-12796.5,4742.5,-12154.8,-12333.4
-7787.2,-6869.2,-8478.8,-12163.1,-12822.5,4742.1,-12163.9,-12361.7
-7783.4,-6864.1,-8476.4,-12164.2,-12825,4739.4,-12164.1,-12360.3
-7773.4,-6847.4,-8469.8,-12151.2,-12807.6,4739.4,-12156.6,-12337.5
-7756.9,-6821.9,-8461.3,-12128.8,-12773.2,4739.9,-12142.5,-12296.9
-7742.8,-6800.4,-8454.9,-12107.9,-12740.2,4739,-12131.2,-12261.5
-7744.4,-6802.6,-8454.6,-12100.7,-12733.9,4739.8,-12130.2,-12255.7
-7751.7,-6815.6,-8458.3,-12110,-12749.7,4740.4,-12137,-12276.1
-7761.8,-6834.5,-8463.9,-12127.8,-12777.8,4740.7,-12148.6,-12310.2
-7776.5,-6858.6,-8469.7,-12150.5,-12813.3,4741,-12161.2,-12350
-7779.7,-6863.8,-8469.5,-12159.8,-12826.7,4740.7,-12164.3,-12363
-7772.5,-6853.9,-8465.9,-12152.6,-12816.7,4739.8,-12159.6,-12347.5
-7762.7,-6838.9,-8460.3,-12136.5,-12793.3,4739,-12151,-12315.4
-7753.2,-6820.6,-8455.7,-12113.7,-12761.3,4738.3,-12139.3,-12271.4
-7748.6,-6811.8,-8455.2,-12104.3,-12749.1,4736.1,-12136.9,-12258.5
-7751.3,-6814.8,-8457.7,-12107,-12754.3,4736.2,-12140.5,-12269.2
-7758.9,-6826.1,-8462.5,-12116.9,-12769.2,4738.6,-12145.2,-12290.1
-7775.5,-6849.3,-8470.7,-12137.7,-12799.9,4741.1,-12155.8,-12326.2
-7784.5,-6865,-8474.1,-12155.2,-12827.7,4742.4,-12165.3,-12357.9
-7781.4,-6859.6,-8472.2,-12154.5,-12829.4,4741.6,-12165.2,-12357.3
-7771.1,-6843.8,-8468.4,-12143,-12809,4741.1,-12156.7,-12332.8
-7753.1,-6815.5,-8460.5,-12119.5,-12768.1,4741,-12140.6,-12286.5
-7744.5,-6801.2,-8455.9,-12103.6,-12742,4741.1,-12131.1,-12256.7
-7746.6,-6801.7,-8456.4,-12099.5,-12738.1,4739.4,-12132,-12253.7
-7755.7,-6814.7,-8462.7,-12109.6,-12749.7,4742.6,-12136.7,-12273.2
-7760,-6826.9,-8467.4,-12126.9,-12764.9,4747.1,-12141,-12303.6
-7770.9,-6845.5,-8470.3,-12144,-12791.4,4747.1,-12149.3,-12328.7
-7777.9,-6858.1,-8470.8,-12153.7,-12808.9,4746.2,-12154.1,-12345.8
-7771.8,-6850.1,-8467.1,-12146.8,-12804.4,4746.9,-12149.3,-12339.5
-7756.2,-6827.1,-8459.6,-12126.5,-12779.6,4747.2,-12138.5,-12312
-7753.1,-6813.4,-8457.2,-12105.9,-12751.5,4747,-12129.7,-12270
-7748,-6805.3,-8454.9,-12095.5,-12733.8,4745.9,-12125.2,-12252
-7750.2,-6809.8,-8456.1,-12097.4,-12735.6,4744.9,-12127.7,-12259.3
-7759.4,-6825.8,-8460.7,-12112,-12754.2,4744.5,-12136.4,-12284.4
-7772.2,-6847.4,-8467.9,-12136.3,-12786.5,4743.3,-12149,-12323.5
-7781.5,-6861.3,-8473,-12154.1,-12813.7,4741.1,-12159.4,-12353.7
-7778.1,-6855.9,-8471,-12152.1,-12814.3,4740,-12158.9,-12350.6
-7765.3,-6837.1,-8465.4,-12135.8,-12792.2,4740,-12149.2,-12321.2
-7759.4,-6825.9,-8462.1,-12121.8,-12771.5,4739.4,-12142.1,-12294.1
-7752.3,-6812.7,-8458.6,-12108.4,-12749.2,4738.2,-12135.4,-12267.7
-7751,-6808.7,-8459.4,-12102.8,-12737.7,4737.4,-12132.6,-12255.4
-7761.8,-6824.1,-8466.1,-12113.1,-12750.3,4738.6,-12138.6,-12271.2
-7774.4,-6845.3,-8471.9,-12132.3,-12775.8,4739.5,-12148.2,-12303.9
-7787.6,-6865.2,-8477.9,-12153,-12807.8,4737.9,-12160.1,-12342.8
-7792.2,-6870.2,-8480.2,-12162.9,-12822.3,4739.5,-12163.8,-12354.9
-7790.5,-6865.1,-8481.1,-12160.3,-12816.3,4740.2,-12160.1,-12338.1
-7780.3,-6850.7,-8477.3,-12150.3,-12799.5,4737.5,-12153.9,-12315.6
-7765.6,-6823.3,-8469,-12126.5,-12767.7,4735.3,-12143.4,-12279.5
-7757.7,-6808.3,-8463.4,-12109.8,-12742.3,4737.2,-12134.1,-12253.3
-7762.1,-6815.9,-8462.8,-12110.3,-12746,4738.2,-12136.8,-12258.3
-7768.5,-6830.3,-8465.4,-12120.8,-12766.3,4738.3,-12146.3,-12282.1
-7778.7,-6849.6,-8469.8,-12139.2,-12795.1,4738,-12157.7,-12319.1
-7787.8,-6863.3,-8473.4,-12155.3,-12817.5,4736.6,-12166.2,-12349.2
-7781.8,-6855.5,-8470.9,-12153.9,-12811,4737.5,-12161.7,-12344.3
-7775.3,-6845.9,-8468.1,-12146.6,-12800.2,4738.7,-12156.2,-12326.6
-7764,-6827.5,-8462.4,-12128.1,-12772.7,4738.8,-12145.4,-12290.3
-7751.8,-6808.6,-8456.3,-12108.5,-12743.4,4737.5,-12136.4,-12260.5
-7743.6,-6799.4,-8454.6,-12100.9,-12730.8,4736.6,-12135.1,-12260.4
-7750.8,-6808,-8459.5,-12106.8,-12739.7,4738.2,-12137.4,-12267.1
-7766.9,-6831.4,-8467.7,-12125.8,-12768.1,4739,-12148,-12297.2
-7780.4,-6853.7,-8473.7,-12148.3,-12803.5,4739.7,-12160.1,-12339.9
-7780.8,-6856.3,-8473.4,-12155.5,-12817.5,4741.1,-12161.7,-12355.9
-7784.6,-6861.9,-8473.7,-12155.9,-12816.2,4741.4,-12160,-12342.3
-7777.9,-6854.1,-8470.9,-12148.8,-12799.4,4740.2,-12153.9,-12320.7
-7767,-6836.3,-8465.4,-12131.8,-12765.8,4740.2,-12140.5,-12281.1
-7766.2,-6834.4,-8464.7,-12126.2,-12746.8,4740.6,-12134.4,-12260.1
-7769.4,-6836.4,-8467,-12126.7,-12742.8,4740.6,-12134,-12257.2
-7774.9,-6837.5,-8472.3,-12132.2,-12760.7,4740.5,-12142.6,-12280.1
-7774.4,-6836.6,-8472,-12140.3,-12787.7,4739.8,-12153.7,-12312.7
-7775.7,-6841,-8470.1,-12150.5,-12811.6,4739.5,-12162.1,-12340.5
-7781.4,-6847,-8469.7,-12154.9,-12822.7,4740.1,-12164.4,-12348.7
-7776.7,-6837.8,-8466.6,-12146.5,-12811.4,4740.3,-12158.5,-12333
-7765.2,-6817.1,-8461.4,-12126.1,-12783,4740.7,-12146.9,-12297.7
-7756.5,-6798.1,-8457.4,-12104.4,-12755,4741.5,-12136.1,-12262.4
-7756.4,-6792.1,-8457.7,-12096.3,-12743.4,4742,-12132.5,-12251.2
-7766.4,-6804.2,-8463.5,-12104.7,-12751.9,4743.6,-12136.6,-12263.8
-7781.7,-6823,-8472.2,-12120.4,-12773.1,4742.6,-12145.3,-12288.8
-7799.5,-6848.7,-8480.2,-12141.8,-12803.4,4742.8,-12156.1,-12319.7
-7805.4,-6863.1,-8484,-12161.2,-12829.8,4743.5,-12164.2,-12349.2
-7796.9,-6854.9,-8479,-12159.6,-12827.4,4743.8,-12162.1,-12345.3
-7783.9,-6835.7,-8471.7,-12143.2,-12805.3,4742.2,-12152.7,-12318.1
-7771.4,-6814.6,-8466.7,-12120.5,-12771.9,4740.1,-12140.1,-12279.3
-7766.7,-6802.7,-8465.8,-12108.4,-12749.3,4740.4,-12132.8,-12256
-7773.4,-6810.4,-8470.1,-12113.9,-12753.2,4741.1,-12135.9,-12264.8
-7778.4,-6816.5,-8474.3,-12120.7,-12758.4,4741.6,-12138.4,-12277.3
-7784.6,-6825.5,-8479.5,-12131.9,-12774.8,4741.4,-12146.8,-12302
-7798.6,-6850.7,-8484.4,-12157.8,-12814.4,4741.4,-12162,-12345.4
-7797.8,-6854.9,-8480.5,-12163.6,-12823.2,4741.2,-12163.3,-12350.8
-7787.3,-6844,-8473.8,-12152.7,-12807.5,4740.8,-12157.5,-12333
-7768.8,-6820.7,-8466.9,-12134.6,-12777.9,4740.5,-12146.4,-12308.5
-7756.5,-6796,-8460.8,-12108.9,-12741.8,4741.7,-12130.5,-12259.6
-7759.3,-6793.9,-8462.7,-12099.6,-12731.3,4742.4,-12128,-12244.6
-7767.9,-6806.3,-8468.5,-12107,-12741,4743.8,-12132,-12260.9
-7780.1,-6824.5,-8475.5,-12123.6,-12766.3,4744.8,-12140.9,-12295.8
-7801.2,-6853.9,-8483.7,-12145.5,-12804.1,4745.4,-12155.7,-12328.9
-7806.1,-6865.3,-8484.3,-12160.1,-12826.6,4744.4,-12163.8,-12352.5
-7799.4,-6857.1,-8482.6,-12155.5,-12823.2,4743.3,-12161.9,-12347
-7788.3,-6839.9,-8479.1,-12142.2,-12805,4741.8,-12154.8,-12323
-7772.9,-6813.6,-8471.3,-12119.1,-12771,4741.2,-12142,-12283.5
-7765.7,-6798.4,-8466.1,-12101.9,-12745.2,4741.1,-12133.2,-12255.6
-7768.2,-6798.9,-8465.8,-12099.3,-12740.7,4741.5,-12133.9,-12253.7
-7775.7,-6809.5,-8469.9,-12108.9,-12751.2,4742.3,-12138.2,-12268.8
-7793.4,-6838.6,-8478.2,-12132,-12783.1,4743.5,-12149.7,-12304.6
-7805.3,-6860.3,-8483.8,-12153.2,-12815.9,4744.6,-12160.5,-12339.6
-7803.5,-6862.4,-8482.8,-12158.8,-12830.2,4742,-12166,-12353.7
-7793.8,-6847.7,-8478.3,-12150.4,-12820.3,4740.8,-12162,-12337.8
-7780.2,-6825.5,-8471.6,-12134,-12793.7,4740.2,-12152.2,-12305.1
-7767.2,-6805.1,-8466,-12115.2,-12761.4,4740,-12140,-12269.6
-7761.2,-6798.5,-8463.4,-12103.9,-12743.8,4740.3,-12133.8,-12251.7
-7768.1,-6807.2,-8465.3,-12104.9,-12749.4,4741,-12136.8,-12256.6
-7777.3,-6825.4,-8471.8,-12121.5,-12773.5,4742.5,-12145.5,-12289.4
-7788.6,-6845,-8479.5,-12142.5,-12803.6,4744.2,-12156.3,-12329.3
-7794.8,-6856.9,-8483.2,-12155.7,-12824.3,4743.7,-12163.5,-12351.5
-7791.9,-6854.8,-8480.5,-12154.8,-12824.3,4742.1,-12162,-12346.3
-7783.6,-6839.9,-8475.3,-12144.7,-12808.2,4742.6,-12154.1,-12325.9
-7770.8,-6816.8,-8468.6,-12124.1,-12776.6,4743.8,-12141,-12288.2
-7760.5,-6799.6,-8464.5,-12104.6,-12748.1,4742.9,-12131.1,-12256.8
-7756.6,-6791.9,-8464.9,-12094.6,-12730.6,4743.4,-12125.9,-12242.5
-7769,-6810.3,-8471.4,-12107.8,-12750.8,4744.5,-12133.9,-12268.6
-7781.5,-6831.5,-8477.7,-12127.4,-12777.8,4746.4,-12142.8,-12301.2
-7791.6,-6849.7,-8483,-12148.4,-12805.3,4745.4,-12154.1,-12336.8
-7788,-6851,-8481.9,-12158,-12814.8,4745.2,-12156.9,-12355.8
-7782.4,-6842.8,-8479,-12151.6,-12803.6,4748.1,-12149.1,-12331.4
-7772.4,-6824.1,-8473.6,-12129.9,-12775.1,4747.3,-12138.1,-12291.2
-7761.4,-6803.1,-8467.9,-12107.4,-12743.9,4747.4,-12126.6,-12255.7
-7758.7,-6797.7,-8468.4,-12099.6,-12736.2,4746.8,-12125.2,-12250.1
-7772.3,-6816.3,-8474.6,-12107.5,-12748,4748.9,-12129.5,-12257.2
-7782.7,-6832.5,-8479.3,-12122.3,-12766.9,4750.1,-12137,-12280.6
-7794.1,-6852.2,-8484.1,-12144.4,-12799.1,4748,-12151.6,-12320.3
-7799.1,-6866.1,-8484.8,-12163,-12825.4,4748.1,-12161.1,-12350
-7792.2,-6860.3,-8481.4,-12161.9,-12823.9,4745.8,-12159.3,-12344.5
-7783,-6843.3,-8477.6,-12147.9,-12803.4,4746.9,-12150.3,-12316.8
-7769.7,-6817.9,-8470.7,-12125.2,-12771.6,4746.6,-12138.6,-12278.2
-7758.4,-6797.9,-8465.9,-12105,-12742.3,4745.8,-12129.4,-12245.8
-7762.7,-6799.3,-8467,-12100.7,-12736.9,4745.4,-12129.2,-12241.6
-7772.9,-6812.8,-8472.3,-12111.9,-12751.1,4745.3,-12135.3,-12261.9
-7786.3,-6835.5,-8479.2,-12133.6,-12782.3,4745.5,-12147.9,-12300.6
-7799.5,-6857.4,-8486,-12155.1,-12816.2,4745.2,-12161.4,-12338.4
-7802,-6861.1,-8487,-12163.2,-12827.5,4745.3,-12163.3,-12350.6
-7794.8,-6849.7,-8482.7,-12156.3,-12817.6,4744.7,-12158.8,-12336.5
-7783.1,-6832.2,-8476.1,-12139.5,-12792.4,4744,-12150,-12304.1
-7772.6,-6813.4,-8470.7,-12116.7,-12760.1,4742.1,-12139.7,-12261
-7768.2,-6807.8,-8470.7,-12108.6,-12747.4,4740,-12136.4,-12250.7
-7773.2,-6815.7,-8473.9,-12114.1,-12754.7,4740.4,-12140.5,-12265.2
-7781.4,-6829.1,-8477.5,-12124.9,-12772.8,4740.4,-12147.9,-12288.6
-7793.7,-6848.7,-8484,-12141.5,-12800.8,4741,-12158.2,-12319.2
-7803.3,-6866,-8490.6,-12161.3,-12831.4,4740.9,-12169.5,-12354.5
-7800.1,-6863.8,-8488.3,-12163.7,-12836.1,4740.3,-12169.8,-12357.6
-7787.1,-6844.6,-8478.9,-12147.9,-12813.7,4737.5,-12161.3,-12331.6
-7767,-6812.9,-8469,-12119.7,-12771.2,4736,-12146.4,-12286.3
-7759.5,-6800.5,-8465.5,-12105.3,-12749.3,4737.8,-12137.2,-12261
-7759.8,-6797.9,-8466.6,-12100.6,-12740.5,4739.5,-12134.4,-12252
-7766.7,-6808.2,-8471.4,-12108.3,-12750.7,4740.4,-12140,-12271.1
-7773.3,-6822.9,-8476.2,-12124.7,-12771.6,4741.5,-12148.3,-12308.8
-7788.1,-6845.1,-8482.7,-12144.9,-12802.6,4742.4,-12157.5,-12339.9
-7795.1,-6855.1,-8484.7,-12153.4,-12817.7,4741.7,-12162.4,-12350.9
-7789.4,-6846.8,-8481.3,-12147.9,-12812.1,4741.2,-12158.5,-12341.4
-7777.2,-6826.6,-8476,-12130.3,-12792.4,4741,-12150.2,-12317.5
-7771.4,-6812.9,-8472.2,-12108.9,-12763.2,4741.9,-12139.6,-12272.3
-7766.8,-6806.9,-8470.7,-12099,-12745.5,4742,-12133.2,-12253.6
-7771.1,-6813.1,-8472.9,-12102.6,-12749.4,4739.9,-12136.7,-12263
-7781.8,-6830,-8477.3,-12118.7,-12771,4740.6,-12145.8,-12290.9
-7795.5,-6853.1,-8484.4,-12142,-12801.5,4742.2,-12156.7,-12328.3
-7802.1,-6864.8,-8486.8,-12156.4,-12824,4741.7,-12164.2,-12353.3
-7798,-6858.6,-8483.5,-12156.4,-12825,4740.8,-12163.7,-12352.1
-7787.5,-6841.9,-8477.9,-12144,-12806.7,4741.3,-12155.2,-12327.9
-7777.7,-6823.9,-8471.2,-12126,-12779,4741.6,-12144.3,-12290.8
-7767.6,-6806.5,-8467.1,-12109.5,-12751.7,4741.1,-12134.9,-12258.9
-7767.4,-6807.1,-8470.7,-12104.6,-12744.6,4741.4,-12134.5,-12254.5
-7777,-6821.7,-8475.3,-12111.9,-12760.2,4741.8,-12141.4,-12274.1
-7787.4,-6838.2,-8480.2,-12127.4,-12784.3,4741.7,-12150.7,-12303.9
-7798,-6855.1,-8485.3,-12145.2,-12812.9,4741.7,-12160.9,-12338
-7803,-6863.3,-8486.3,-12155.4,-12828.3,4742.2,-12166,-12354.9
-7799.8,-6856.5,-8481.8,-12149.1,-12817.6,4742.9,-12160.7,-12335.5
-7788.8,-6841.7,-8476.5,-12138.2,-12798,4742,-12152.3,-12312.7
-7772.7,-6815,-8469.4,-12114.6,-12763.3,4741.2,-12139.2,-12275.6
-7764.6,-6800.8,-8466.1,-12100.1,-12741.9,4741.2,-12132.7,-12253.3
-7770.9,-6809,-8470.2,-12104.5,-12746.1,4743.5,-12134.2,-12259.4
-7781.8,-6826.3,-8478.6,-12120.7,-12766,4745.3,-12142.1,-12285.4
-7796.7,-6850.5,-8489.9,-12145.2,-12800.1,4745,-12156,-12326.5
-7801.9,-6862.1,-8494.3,-12160.5,-12819.9,4743.7,-12163,-12351.8
-7792.6,-6848.9,-8490.5,-12153.7,-12808.9,4744.2,-12158.3,-12338.6
-7788.1,-6841.8,-8485.2,-12145.6,-12802.3,4744.2,-12155.2,-12327.7
-7776.5,-6822.5,-8476.3,-12125,-12773.2,4744.1,-12143.8,-12292.3
-7766.5,-6804.6,-8470.7,-12106.5,-12742.2,4743.1,-12134.2,-12259.4
-7761.4,-6800.9,-8468.2,-12103.6,-12733.7,4742.7,-12134.6,-12262.7
-7767.4,-6810.8,-8469.4,-12108.6,-12742.4,4744.4,-12137,-12268.7
-7781.5,-6833,-8474.9,-12124.7,-12767,4743.5,-12146.3,-12295.4
-7794.7,-6852.8,-8481.9,-12146,-12799.2,4742.5,-12158.3,-12335.1
-7795.6,-6858.4,-8482.2,-12154.8,-12818.2,4740.3,-12164.8,-12357.5
-7795.8,-6859.2,-8481.1,-12149.7,-12815.1,4740.6,-12163.5,-12341.5
-7787,-6845.4,-8476.3,-12137.2,-12798.1,4740.8,-12156.4,-12320.3
-7773.5,-6823.1,-8469.3,-12118.5,-12768.9,4739.7,-12145.3,-12288.9
-7764.2,-6809.3,-8465.9,-12105.2,-12747.1,4737.4,-12139.2,-12265.1
-7764.6,-6809.3,-8468.2,-12103.4,-12744.6,4736.8,-12140,-12263
-7773.8,-6824.2,-8473.3,-12115.9,-12761.2,4739.3,-12145.5,-12285
-7786.3,-6845.4,-8479.2,-12137.1,-12792.3,4738.9,-12156.7,-12323.5
-7792.6,-6858.1,-8482.2,-12152.4,-12816.6,4738.3,-12165.7,-12350.9
-7792.8,-6860.4,-8481.1,-12155.5,-12822.7,4739.4,-12165.8,-12352.5
-7784.9,-6846.7,-8477.4,-12144.4,-12807.6,4740.7,-12158.1,-12331.9
-7774.8,-6826.5,-8472.5,-12125.6,-12780.8,4741.7,-12147.4,-12297.7
-7765.9,-6811.4,-8467.1,-12108.8,-12753.5,4742,-12136.7,-12264.5
-7763.8,-6808.3,-8467,-12103.7,-12743.9,4742.7,-12133.8,-12256.7
-7766.2,-6814.8,-8469.9,-12109.5,-12747.9,4744.5,-12135.2,-12264.5
-7777.2,-6832.2,-8476.1,-12124.6,-12768.8,4745.2,-12144.3,-12290.4
-7793.4,-6857.1,-8482.9,-12146.6,-12801.7,4743.4,-12158.5,-12324.9
-7800,-6869.3,-8486.1,-12164.1,-12827,4741.9,-12168.2,-12355
-7792.9,-6860.4,-8483,-12159.6,-12821.9,4741.4,-12165.3,-12346.9
-7781.4,-6844.6,-8477.9,-12143.8,-12799.3,4740.5,-12157,-12318.2
-7770.8,-6824.8,-8472.8,-12122.9,-12769.8,4739.3,-12146.1,-12282.8
-7762.8,-6810,-8469.4,-12106,-12748.8,4737.4,-12140,-12261
-7766.2,-6813.7,-8472.2,-12108.5,-12750.5,4737.4,-12142.4,-12267.1
-7772.4,-6822,-8479.1,-12119.3,-12759.8,4737.3,-12146.9,-12280.7
-7782,-6835.7,-8484.8,-12137.2,-12781.9,4737.8,-12156.2,-12310.1
-7794.2,-6855.6,-8486.8,-12158.9,-12815,4737.6,-12168,-12347.4
-7796.5,-6859.7,-8485.9,-12163.5,-12823.4,4736,-12170.3,-12355.2
-7788.6,-6848.8,-8482,-12153.8,-12810,4736,-12165,-12341.6
-7767,-6820.2,-8472.9,-12129.4,-12774.2,4737.4,-12152.2,-12309.5
-7754,-6796.7,-8467.9,-12103.4,-12737.7,4738.7,-12137.5,-12261.3
-7756.8,-6797,-8469.1,-12096.6,-12728.9,4740,-12134.9,-12250.5
-7763.9,-6806.2,-8472.3,-12101.8,-12739.1,4740.4,-12139.4,-12266.4
-7773.2,-6822.7,-8477.8,-12116.1,-12763.5,4742.3,-12147.5,-12299.4
-7792.9,-6852.3,-8486,-12140,-12795.4,4745.1,-12158.7,-12326.9
-7799.5,-6865.2,-8486.7,-12157.9,-12819.8,4744.2,-12168.2,-12352.9
-7793.3,-6853.9,-8480.5,-12153.1,-12817,4742.6,-12167.1,-12346.3
-7784.4,-6838.2,-8476.1,-12138.9,-12797.4,4742.9,-12158.9,-12320.2
-7771.6,-6814.6,-8471.1,-12118.3,-12763.3,4742.8,-12146.3,-12279.3
-7765.9,-6802.1,-8468.3,-12103.5,-12739.3,4743.2,-12137.8,-12252.5
-7767.1,-6805.3,-8467.8,-12102.5,-12738,4743.1,-12138.3,-12253.3
-7772.8,-6816.3,-8472.1,-12113.8,-12749.2,4743.8,-12142.8,-12271.1
-7790,-6840.2,-8480.8,-12135,-12780.9,4744.8,-12155.1,-12306.9
-7799.7,-6857.6,-8486.6,-12153.4,-12812.2,4744,-12166.6,-12341.1
-7799.2,-6860.8,-8487.2,-12158.4,-12822.8,4742.7,-12169.4,-12351.8
-7793.3,-6853,-8484.2,-12149.8,-12812.6,4741.5,-12164.3,-12336
-7780.2,-6831.8,-8477.6,-12130.6,-12785.4,4740.2,-12153.7,-12302.1
-7768.3,-6811.1,-8471.2,-12110.2,-12755.1,4739.1,-12143.4,-12265.8
-7766.5,-6803.7,-8469.9,-12099.1,-12740.1,4739.2,-12139.3,-12248.9
-7777,-6816,-8474.2,-12105.3,-12749.7,4739.7,-12144.6,-12256.8
-7788.6,-6837.7,-8480,-12127.4,-12779.3,4739.9,-12155.9,-12293.9
-7799.4,-6857.7,-8485.7,-12149.7,-12810.3,4739.9,-12167.2,-12333.1
-7804.2,-6868,-8487.7,-12162.8,-12829.3,4739.8,-12172.9,-12354.7
-7801,-6863.2,-8485.8,-12161.6,-12826.6,4739.9,-12169.8,-12346.5
-7792.4,-6848.7,-8482.6,-12150.9,-12810,4739,-12162.6,-12325.5
-7779,-6826.5,-8476.8,-12131.8,-12777.9,4738.8,-12150.7,-12287.8
-7769.1,-6807.9,-8473.7,-12113,-12746.5,4738.7,-12140.9,-12253.7
-7767.9,-6806.7,-8475,-12107.9,-12738.6,4738.5,-12140.6,-12250.7
-7777.1,-6823.4,-8479.2,-12120.9,-12758.4,4738.2,-12149.3,-12277.2
-7788.3,-6839.5,-8483.8,-12137.4,-12780.4,4739,-12157.1,-12305.9
-7804.9,-6863.6,-8492.5,-12160.9,-12811.5,4740.8,-12168.7,-12346.2
-7806.2,-6867.6,-8496.3,-12169.4,-12817.2,4741.8,-12169.4,-12359.4
-7802.5,-6861.7,-8495.3,-12161.3,-12800.1,4743,-12159.4,-12330.8
-7791,-6846.3,-8486.6,-12142.1,-12774.4,4742.2,-12150.1,-12294.7
-7770.2,-6820.7,-8473.2,-12117.7,-12746.5,4742,-12139.4,-12262.7
-7757.8,-6803,-8464.4,-12102.9,-12737,4742.4,-12135.8,-12256.5
-7764.4,-6805.3,-8463.5,-12098.3,-12746,4741.3,-12141.3,-12259.7
-7773.9,-6816.7,-8468.8,-12109.1,-12771.8,4740.5,-12153.5,-12292.7
-7786.7,-6835.6,-8476.1,-12128.8,-12803.6,4741.9,-12165.1,-12332
-7793.1,-6848.7,-8479,-12144.6,-12825.6,4743.5,-12171.6,-12354.1
-7785.7,-6840.8,-8475.1,-12142.7,-12821.3,4742.9,-12168.6,-12344.9
-7776.5,-6826.8,-8470.9,-12132.8,-12805.3,4741.1,-12163.8,-12325.3
-7762.1,-6798.4,-8463.8,-12109.9,-12771,4739,-12152.2,-12284.6
-7751.2,-6778.1,-8459.2,-12090.6,-12739.6,4738.1,-12142,-12250.4
-7759.2,-6788.6,-8462.9,-12093.1,-12741,4738.2,-12145.3,-12253.4
-7770.8,-6807.4,-8468.8,-12108.8,-12760.4,4737.3,-12153.7,-12278.5
-7783.5,-6829.2,-8476.5,-12129.5,-12787.8,4738.2,-12163.6,-12313.9
-7796.4,-6848.6,-8483.5,-12150.1,-12818.6,4739.8,-12173.8,-12347.4
-7797.8,-6850.5,-8484.3,-12156.9,-12831.6,4737.8,-12178.3,-12360.1
-7788,-6838.5,-8478.8,-12150.3,-12820.3,4736.3,-12173.5,-12344.4
-7773.9,-6818,-8469.2,-12132,-12791.4,4736.3,-12161.9,-12308.3
-7765.1,-6800.2,-8462.4,-12110.9,-12759.3,4738.4,-12148.7,-12265.5
-7760.2,-6792.1,-8461,-12101.6,-12746.3,4738.3,-12144.2,-12252.1
-7762.6,-6795.2,-8466,-12104,-12749.6,4736.6,-12147.8,-12263.6
-7774.6,-6812.5,-8472.5,-12119,-12770.5,4738.8,-12155.8,-12292.5
-7789.2,-6833.5,-8476.1,-12139.9,-12802.5,4739.6,-12168.2,-12327.1
-7797.7,-6848.8,-8479.2,-12157,-12829.7,4738,-12178.5,-12358.9
-7796.1,-6849.2,-8478.2,-12159.6,-12830.8,4738.2,-12176.1,-12362.6
-7779.3,-6824.9,-8470.6,-12139.8,-12799.7,4737.7,-12162.7,-12325.8
-7763.2,-6798.4,-8464.9,-12116.1,-12763.2,4736.3,-12150.2,-12284.7
-7757.8,-6788.4,-8462.3,-12104.4,-12742.4,4736.5,-12142.7,-12258.7
-7760.9,-6793.4,-8463.5,-12104.7,-12740.2,4737.5,-12142.5,-12257.6
-7765.5,-6803.8,-8465.4,-12113.4,-12751.5,4738,-12147.6,-12278.1
-7769.7,-6813.8,-8472,-12126.9,-12773.6,4738,-12157.3,-12316.7
-7782.3,-6828.4,-8480.7,-12141.2,-12799.6,4739.4,-12165,-12340.5
-7789.1,-6837.6,-8481.5,-12150.5,-12814,4740.2,-12168.5,-12349.3
-7783.7,-6831.5,-8477.1,-12147.4,-12808.1,4740.6,-12164.1,-12338.8
-7770.4,-6812.3,-8469.1,-12131.4,-12788.6,4739.2,-12155.7,-12314.7
-7765.3,-6799.6,-8464,-12111.5,-12761.6,4738.9,-12146.1,-12273.4
-7758.8,-6790.7,-8460.2,-12099.2,-12743.7,4738,-12141.2,-12255.6
-7762.9,-6798.3,-8462.3,-12103.9,-12750,4737.6,-12144.9,-12269.1
-7772.1,-6813.6,-8467.9,-12117.8,-12768.6,4737.9,-12152,-12293.3
-7781.9,-6832,-8473,-12137.6,-12797.9,4736.2,-12163.4,-12330.2
-7790.1,-6846.5,-8476.1,-12154.1,-12824.3,4736.5,-12172.9,-12360.1
-7785.3,-6839.6,-8472.8,-12152.1,-12824.8,4735.6,-12172.8,-12355.7
-7774.7,-6820.8,-8469.3,-12137.1,-12804.3,4734.7,-12165.1,-12328.6
-7766.9,-6805,-8468.5,-12119.8,-12777.3,4734.7,-12155.8,-12292.1
-7760,-6791,-8466.8,-12105.1,-12753.7,4735,-12147.9,-12263.9
-7759.9,-6788.6,-8464.6,-12100.2,-12746.5,4735.5,-12146.1,-12258.6
-7767.3,-6801.2,-8466,-12111.2,-12761.2,4735.4,-12152.4,-12278
-7777,-6820.3,-8469.7,-12130.8,-12785.5,4736.7,-12161.2,-12309.3
-7789.9,-6843.6,-8475,-12152.6,-12817.2,4738.4,-12171.9,-12347.4
-7791.8,-6847.3,-8475.6,-12156.3,-12827.1,4739.6,-12172.8,-12355.4
-7789.2,-6838,-8473.4,-12145.5,-12815.3,4740.4,-12165.7,-12333.8
-7779.5,-6825.6,-8469.7,-12133.1,-12798.6,4739.7,-12158.6,-12314.5
-7763.2,-6801.5,-8462.9,-12110.7,-12764.3,4738.8,-12145.8,-12277.9
-7755.9,-6789.1,-8460.4,-12098.2,-12742.6,4739.2,-12137.9,-12254.6
-7763.2,-6800.5,-8465.3,-12105.9,-12749.4,4740.9,-12140.6,-12263.2
-7772.3,-6817.5,-8471.8,-12121.3,-12767.5,4743.2,-12146.7,-12288.6
-7783.9,-6840,-8476.8,-12144.2,-12801.3,4743.5,-12159.6,-12331.3
-7788.3,-6848.5,-8477.1,-12157.1,-12819.6,4743.3,-12165.2,-12353.6
-7779.5,-6833,-8472.3,-12147.7,-12805.2,4744.6,-12158.6,-12337.3
-7777.4,-6827.8,-8470.6,-12142.6,-12800,4745.2,-12155.8,-12327.8
-7765.4,-6806.4,-8465.2,-12120.5,-12768.3,4745.7,-12142.8,-12286.4
-7754.6,-6788.5,-8464.6,-12101.9,-12734.9,4745.3,-12131.8,-12249.3
-7752.8,-6787.1,-8465.7,-12104.6,-12731.4,4744,-12134.7,-12257.3
-7759.4,-6794.9,-8465,-12110.2,-12742.5,4742.2,-12140.9,-12265.7
-7771.8,-6816.4,-8469.2,-12122.9,-12769.6,4740.7,-12152.8,-12293.6
-7784.8,-6838.2,-8474.9,-12140.7,-12804.3,4738.7,-12165.2,-12337.2
-7789.3,-6845.1,-8477.3,-12149.5,-12825.6,4738.7,-12171.1,-12364.8
-7789.9,-6841.7,-8475.4,-12142,-12820.2,4739.3,-12168.2,-12344.5
-7778.7,-6824.1,-8468.8,-12127.5,-12798,4737.6,-12160.5,-12315.9
-7765.9,-6803.3,-8463.1,-12109.4,-12769.3,4736.6,-12150.8,-12281.6
-7760.4,-6793.3,-8462.6,-12099.8,-12752.7,4735.5,-12147.2,-12261.9
-7762.9,-6799.1,-8467.6,-12102.5,-12751.8,4735.4,-12147.9,-12265.1
-7771.9,-6813.1,-8474.2,-12113.2,-12768.1,4736.3,-12153.4,-12287.9
-7783.2,-6831,-8479.9,-12133.4,-12798.9,4737.7,-12164.3,-12322.6
-7788.7,-6843.3,-8482.8,-12151,-12821.7,4737,-12173.1,-12349.1
-7790.5,-6846.5,-8480.4,-12154.6,-12827.9,4737.4,-12174.4,-12349.7
-7782.6,-6832.8,-8474.8,-12143.1,-12814.1,4737.4,-12168.4,-12329
-7772.1,-6812.3,-8468.1,-12125.8,-12788.3,4737.2,-12158.9,-12298.1
-7763.1,-6796.5,-8463.1,-12109.3,-12761.1,4736.5,-12148.9,-12267.1
-7760.3,-6791.3,-8462.9,-12100.5,-12746.8,4735.8,-12145.5,-12255.5
-7768.2,-6801.7,-8468.8,-12107.6,-12758.8,4736.2,-12151.6,-12271.8
-7779.7,-6820,-8474.7,-12123.7,-12783.3,4737.3,-12160.8,-12300.2
-7795.2,-6843.1,-8482,-12143.7,-12814.4,4738.3,-12171.3,-12332.6
-7801.7,-6855.4,-8486.2,-12160.4,-12837.1,4739.2,-12177.4,-12359.4
-7793.2,-6845.2,-8481.6,-12156.2,-12826.3,4740.4,-12170.4,-12347.7
-7782.3,-6828.6,-8476.5,-12140.5,-12804.7,4739.2,-12162.3,-12321
-7768.4,-6804.5,-8469.9,-12117.4,-12772.6,4738.3,-12150.9,-12278.5
-7761.5,-6791.2,-8467.8,-12103.8,-12751.3,4739.3,-12143.4,-12254.5
-7764.3,-6795.2,-8469.8,-12105.2,-12752.7,4739.5,-12145.8,-12261.1
-7770.9,-6805.4,-8471.7,-12113.1,-12764.1,4740.1,-12151.4,-12278.8
-7778.6,-6819.3,-8476.6,-12127.9,-12785.7,4740.3,-12160.7,-12307.7
-7791.1,-6840.9,-8482.8,-12148.9,-12816.8,4741.2,-12171.2,-12344.7
-7790,-6841.2,-8481.6,-12151,-12820.8,4742.2,-12171.3,-12344.3
-7781.9,-6829.7,-8477.3,-12142.1,-12809.8,4741.5,-12168.1,-12330.5
-7763.6,-6804.4,-8470.7,-12122.9,-12778.8,4740.5,-12156.1,-12305.3
-7752.7,-6782.8,-8467.9,-12101.5,-12744,4741.5,-12140.9,-12260.5
-7756.2,-6784.7,-8469.8,-12098,-12737.3,4742,-12139.2,-12251.3
-7761.9,-6795.6,-8469.3,-12106.7,-12749.7,4740.5,-12146,-12270.3
-7770.4,-6812.9,-8471.9,-12122.8,-12773.7,4739.6,-12156,-12304
-7794.4,-6848.9,-8481.5,-12148.3,-12813.8,4740.6,-12171.3,-12341.6
-7798.8,-6858.5,-8484,-12160.2,-12832,4739.2,-12177,-12360.5
-7791,-6845.2,-8479.9,-12154.5,-12824.6,4737.2,-12173.6,-12349.9
-7783.1,-6828.6,-8475.4,-12142,-12807.8,4736.6,-12166.5,-12327.7
-7767.7,-6802,-8467.1,-12117.8,-12772.3,4736.1,-12152.9,-12283.9
-7760.6,-6790.2,-8464.9,-12102.3,-12749.4,4736.5,-12145.6,-12258.2
-7764.2,-6795.5,-8468,-12102.8,-12749,4736.8,-12146.3,-12262.2
-7771.7,-6807.9,-8472.9,-12114,-12760.3,4739.4,-12149.4,-12279.3
-7790.3,-6836.2,-8481.9,-12135.1,-12795.7,4740.6,-12163.4,-12318.9
-7799.8,-6853.5,-8487.5,-12151.6,-12823.9,4741.4,-12172.2,-12347.9
-7800.2,-6858.3,-8487.9,-12159.3,-12834.6,4740.9,-12174.3,-12358.3
-7794.7,-6848.2,-8484.4,-12155.2,-12825.8,4739.1,-12170.8,-12343
-7780.6,-6823.2,-8478.4,-12136.9,-12795.7,4737.2,-12159.5,-12306.2
-7768.9,-6803.1,-8473.5,-12115,-12762.6,4736.5,-12147.9,-12268.8
-7768.9,-6800,-8474.1,-12105.6,-12750.1,4738.9,-12144.8,-12253.3
-7778.1,-6809.3,-8476.2,-12107.7,-12756.2,4741.9,-12147.3,-12256.3
-7788.6,-6829.3,-8479.8,-12124.7,-12784.9,4742.2,-12157.5,-12292.9
-7798.5,-6849.8,-8485.2,-12145.2,-12818.1,4741.4,-12170,-12335.2
-7802.1,-6857.8,-8486.1,-12155.4,-12839.1,4735.2,-12179.3,-12360.4
-7798.5,-6851.4,-8483.9,-12152.4,-12834.7,4733.9,-12177.1,-12351
-7790.9,-6838.1,-8480.8,-12144.2,-12820.4,4733.1,-12171.7,-12332.5
-7775.3,-6813.7,-8474.3,-12123.6,-12787.8,4732.7,-12159.5,-12295.6
-7761,-6790.2,-8468.3,-12100.1,-12751.5,4733.7,-12146.1,-12255.5
-7759.3,-6787.8,-8470.7,-12095.4,-12739.5,4736.5,-12141.7,-12250.5
-7771,-6808.4,-8480.3,-12111.1,-12758.6,4740.2,-12147.7,-12277.3
-7783.3,-6830.3,-8485.4,-12129.8,-12790,4740.6,-12159.7,-12313.1
-7790.8,-6846.6,-8484.5,-12146.8,-12818.9,4739.8,-12171.6,-12349.6
-7783.2,-6841,-8478.9,-12150,-12823.9,4738.7,-12174.2,-12361.2
-7776,-6825.9,-8476.2,-12140.2,-12810.2,4737,-12168.3,-12337.1
-7769.6,-6811,-8472,-12123.7,-12785.1,4736.3,-12159.4,-12302.6
-7761.3,-6795.4,-8467.4,-12105.7,-12755.9,4735.8,-12149.3,-12270.6
-7757.1,-6789.1,-8465.5,-12097.2,-12743.3,4737.3,-12144.7,-12261.2
-7769,-6804.8,-8469.5,-12104.1,-12751.7,4738.6,-12148.6,-12265.6
-7778.2,-6823.1,-8474.5,-12121.3,-12776,4738.3,-12158.2,-12296.9
-7788.9,-6844.3,-8481,-12142.9,-12809.1,4738.1,-12171.3,-12338.2
-7796.1,-6856.6,-8483.7,-12158,-12829.4,4740.3,-12177.5,-12359
-7792,-6848.8,-8481.3,-12156.8,-12823.8,4740.8,-12173.4,-12347.9
-7781.5,-6831.4,-8477.7,-12142,-12803.9,4740.9,-12163.7,-12321
-7764.7,-6803.6,-8470.6,-12116,-12768.4,4739.3,-12150,-12280.1
-7753.5,-6784.9,-8467.1,-12096.4,-12740.8,4738.6,-12141.8,-12251.2
-7760.4,-6792.1,-8470.4,-12097.3,-12742.9,4739.7,-12144.1,-12254.5
-7769,-6802.5,-8473.8,-12106.8,-12758.7,4740,-12151.4,-12275.1
-7779.9,-6822.6,-8479.2,-12126.3,-12787.8,4740.6,-12162.6,-12311.3
-7792.1,-6846.1,-8485.2,-12148.5,-12820.3,4741.6,-12172.8,-12347.7
-7791.7,-6847.3,-8484.7,-12152.4,-12827.5,4741.6,-12172.9,-12353.9
-7783.7,-6834.3,-8480.6,-12143,-12814.6,4740.7,-12167.4,-12335.6
-7773.5,-6815.6,-8475,-12126,-12789,4740.2,-12157.4,-12301.9
-7767,-6798.2,-8471.4,-12105.5,-12757.4,4741.1,-12145.4,-12259
-7765.9,-6796.2,-8471.6,-12102.2,-12747.1,4740.5,-12142.8,-12251.5
-7769.4,-6803.3,-8474,-12108.1,-12754.8,4739.4,-12148.2,-12265.1
-7781.3,-6821.3,-8479.7,-12123.3,-12778.3,4739.4,-12157.7,-12295.6
-7795,-6845.3,-8486.5,-12144.7,-12807.2,4739.4,-12167.2,-12331
-7806,-6864.6,-8493.8,-12163.6,-12829.6,4739.9,-12174.2,-12358.1
-7807.9,-6869.8,-8495.7,-12168.7,-12828,4740.5,-12171.8,-12355
-7802,-6858.9,-8493.9,-12157.3,-12802.7,4739.9,-12161.3,-12324
-7786.1,-6831.8,-8486.9,-12133.2,-12762.9,4739.1,-12146.3,-12280.1
-7773.8,-6810.3,-8479.6,-12113.6,-12741.6,4738.2,-12139.8,-12256
-7767.5,-6797.5,-8473.6,-12101.2,-12739.3,4737.4,-12142.2,-12256
-7762.9,-6793.5,-8468.6,-12099.5,-12754,4736.1,-12150.8,-12279.3
-7763.9,-6802.6,-8470.7,-12113.2,-12777.3,4736.1,-12160.9,-12319.2
-7779.4,-6827.5,-8479.3,-12134.8,-12803.1,4738.1,-12167.9,-12344.4
-7789.5,-6844.1,-8483.6,-12146.2,-12815.3,4738.7,-12171.1,-12352.4
-7787,-6841.2,-8482,-12143.1,-12806.7,4738.5,-12166.3,-12340.7
-7776.7,-6822.9,-8476.6,-12127.1,-12783.7,4738.5,-12156.3,-12314.4
-7774.4,-6811.4,-8473.7,-12106.6,-12754.1,4740.1,-12145.2,-12268.2
-7772.5,-6806.2,-8473.9,-12098.6,-12740.5,4741.7,-12140.5,-12253.3
-7776.2,-6813.7,-8477.4,-12104.4,-12745.2,4743.3,-12142,-12263.3
-7786.7,-6831.4,-8484.3,-12119.2,-12765,4743.2,-12150.4,-12289.2
-7800.9,-6856,-8491.5,-12141.6,-12797.3,4742.8,-12163.4,-12328.5
-7807.5,-6870,-8494.2,-12157.7,-12820.9,4743.8,-12171,-12353.8
-7799.3,-6860.7,-8489.3,-12153.6,-12819.7,4742,-12170.3,-12346.7
-7786.5,-6841.4,-8484,-12138.9,-12799.1,4740.5,-12161.7,-12319.6
-7780.1,-6827.2,-8480.7,-12121.6,-12769.3,4739.9,-12149.8,-12283.4
-7776.9,-6819.3,-8480.1,-12110.2,-12744.8,4741.2,-12140.8,-12256.6
-7778.2,-6821.9,-8482,-12109,-12738.8,4742.9,-12139.1,-12252.6
-7786.7,-6836.6,-8486.6,-12119.4,-12755.1,4743.9,-12146.8,-12273.2
-7797.8,-6854.9,-8491.6,-12137.2,-12783.3,4744.1,-12157.3,-12308
-7807.2,-6873.7,-8496.2,-12158.8,-12811.7,4741.5,-12168.4,-12344.3
-7809.7,-6877.9,-8496.7,-12167.2,-12820.8,4742.2,-12170.9,-12352.5
-7807.1,-6870.9,-8493.7,-12159.9,-12813.3,4741.6,-12167.2,-12334
-7795.5,-6854.7,-8488.9,-12145.8,-12796.8,4738.4,-12161.2,-12312.3
-7779.7,-6829.7,-8482.4,-12123.6,-12765.4,4737.7,-12149.3,-12277.1
-7773.6,-6818.2,-8479.6,-12109.2,-12745.4,4739.2,-12142.3,-12255.1
-7780,-6828.6,-8482.7,-12114.5,-12751.2,4740.2,-12144.4,-12263.4
-7789.6,-6845.1,-8487.4,-12131.3,-12772.7,4740.1,-12153.1,-12292.2
-7800.9,-6865.3,-8492.4,-12152.5,-12804.6,4740.8,-12164.9,-12331.9
-7804.7,-6873.5,-8492.8,-12163.7,-12824.2,4740.8,-12170.6,-12356
-7796.6,-6859.9,-8488.9,-12155.2,-12814.1,4740.9,-12165.7,-12344.7
-7792.5,-6850.7,-8487.4,-12147.8,-12805.1,4742.4,-12160.3,-12328.7
-7779.6,-6826.3,-8481.1,-12125.8,-12770.3,4742.9,-12145.2,-12283.6
-7773.1,-6813,-8478.2,-12111.3,-12743.7,4743.1,-12136.5,-12256.4
-7766.6,-6806.9,-8478.1,-12106.7,-12731.9,4743.4,-12134.3,-12256.3
-7772,-6814.3,-8482.9,-12110.2,-12740.7,4743.8,-12138.1,-12263.3
-7786.6,-6837.5,-8489,-12126.7,-12767.7,4743.4,-12148.9,-12294.8
-7800.4,-6863.1,-8493.4,-12151.3,-12806.3,4742.6,-12163.3,-12342.3
-7800.9,-6865.4,-8492.3,-12158.8,-12822.1,4743.4,-12167,-12358.5
-7803.4,-6864.4,-8491.2,-12154.4,-12816.7,4742.7,-12165.1,-12336.2
-7795.7,-6852.4,-8487.2,-12144.9,-12800,4741.3,-12159.4,-12314.7
-7782,-6829.6,-8481.4,-12125.3,-12765.2,4741.4,-12145.3,-12276.3
-7776.6,-6819.3,-8480,-12117.4,-12744.8,4742.5,-12138.2,-12254.9
-7779,-6823.5,-8482,-12120.6,-12746.7,4742.6,-12139.9,-12260
-7788.4,-6838.7,-8486.6,-12133.9,-12766.5,4742.8,-12147.9,-12288.3
-7799.2,-6856.6,-8491.6,-12149.2,-12792.3,4743.7,-12157.9,-12320.5
-7806.6,-6867.2,-8495,-12158.3,-12815.6,4743.4,-12168.2,-12342.1
-7810.6,-6872.8,-8495.6,-12162.2,-12825.5,4741.9,-12171.5,-12347.6
-7803.5,-6862.8,-8492.1,-12154.7,-12814,4740.2,-12165.7,-12333.3
-7788.8,-6839.3,-8484,-12133.7,-12783.8,4740.4,-12153.9,-12295.2
-7778,-6821.5,-8479.1,-12116.2,-12756.7,4738.5,-12145.7,-12262.6
-7777.4,-6820.6,-8480.6,-12112.8,-12748.9,4737.3,-12144.2,-12259.3
-7783.4,-6831.5,-8486.2,-12122.6,-12758.4,4737.9,-12147.8,-12275.1
-7794.6,-6850.5,-8493.4,-12140.2,-12781.1,4740,-12156,-12301.6
-7808.8,-6872,-8498.8,-12156.8,-12809.3,4741.8,-12165,-12331.3
-7814.3,-6884.5,-8500.1,-12170.2,-12831.4,4743.3,-12169.8,-12358.4
-7806.3,-6874.4,-8496.2,-12164.7,-12825.1,4744.2,-12165.1,-12346.6
-7793.8,-6855.3,-8490.7,-12148.1,-12799.4,4744.7,-12155.3,-12310.7
-7781.7,-6831.6,-8482.4,-12124.7,-12764.8,4743.7,-12143,-12268
-7776.7,-6820.6,-8479.1,-12112.2,-12747.6,4742.1,-12138,-12252.3
-7781.5,-6828.5,-8481.5,-12116.5,-12751.8,4744.7,-12140.1,-12263.3
-7787.2,-6838.8,-8484.5,-12126.9,-12762.8,4745.2,-12144.4,-12280.3
-7793.4,-6849.9,-8489.5,-12139.8,-12779.6,4745.7,-12150.6,-12304.7
-7806.6,-6874,-8495.9,-12162.7,-12815.3,4747.8,-12162.6,-12344.2
-7802.7,-6870.3,-8492.3,-12162.3,-12815.4,4750.4,-12159.1,-12339.6
-7792.9,-6858.8,-8487.1,-12152.2,-12800,4751.6,-12153.7,-12321.5
-7773.4,-6833.7,-8478.5,-12133.3,-12770.6,4748.8,-12145.2,-12296.3
-7760.8,-6809.5,-8472.7,-12109.1,-12736.3,4746.1,-12133.1,-12251.9
-7766.3,-6813.4,-8475.8,-12105.4,-12728.1,4747.7,-12131.1,-12241.8
-7775.5,-6829.1,-8482.6,-12116.8,-12742.5,4749.1,-12136,-12262.4
-7786.6,-6848.8,-8491.8,-12136,-12771.7,4748.5,-12146.9,-12301.1
-7807.4,-6877.1,-8499.6,-12157.6,-12805.3,4748.9,-12159.1,-12331.8
-7812.4,-6886.8,-8499,-12170.3,-12824.1,4749,-12164.8,-12353.8
-7804.3,-6876.9,-8493.7,-12164.2,-12815.2,4750.9,-12159,-12342
-7794.8,-6860,-8489,-12148.5,-12793.5,4752,-12149.8,-12313.4
-7781.2,-6834.7,-8482.8,-12123.5,-12759.4,4749.6,-12138.8,-12273.1
-7773.6,-6823.1,-8479.9,-12107.8,-12736.5,4749.1,-12131.6,-12248.2
-7773.6,-6826.8,-8480.9,-12108.6,-12736.3,4749.3,-12133.2,-12251.6
-7778.6,-6836.3,-8483.8,-12118.3,-12750.5,4748.3,-12140.2,-12272.4
-7794.8,-6862.4,-8491.3,-12141.8,-12783.8,4749.3,-12152,-12311.1
-7806.2,-6882,-8497.1,-12164.6,-12815.9,4749.7,-12162.7,-12347.5
-7805.5,-6882.5,-8497.2,-12168.3,-12823.5,4749.9,-12164.1,-12352
-7797.7,-6870.4,-8493.8,-12158.3,-12809.2,4749.4,-12157.8,-12330.3
-7785.2,-6848.7,-8487.4,-12137.5,-12779.5,4748.8,-12146.3,-12295.4
-7774.3,-6828.4,-8482.2,-12116.1,-12748.8,4749.8,-12134.6,-12260.3
-7771.7,-6824.1,-8480.5,-12106.8,-12736.8,4748.7,-12131.6,-12248.8
-7782.6,-6836.7,-8483,-12112.7,-12745.2,4750.5,-12135,-12257.7
-7793.6,-6857.2,-8488.5,-12134.7,-12773.7,4748,-12147.5,-12295.8
-7802.6,-6877.4,-8493.6,-12159,-12807,4747.1,-12161.6,-12336.9
-7805.9,-6885.6,-8494.7,-12170.2,-12821.9,4748.8,-12166.5,-12353.6
-7802.1,-6879.1,-8492.9,-12164.7,-12814.6,4749.5,-12160.9,-12342.6
-7792.4,-6863.6,-8488.1,-12152.8,-12796.5,4749.2,-12152.5,-12320.3
-7779.3,-6840.1,-8482.1,-12131.8,-12764,4748.5,-12141.2,-12281.2
-7771,-6823.1,-8479.6,-12113.6,-12736.7,4747.7,-12133.4,-12252.3
-7771.9,-6822.9,-8483.8,-12111.9,-12730.9,4747.8,-12133.2,-12251.7
-7781.7,-6841.5,-8490.4,-12126.7,-12752.4,4748.3,-12141.6,-12277
-7795.2,-6862.7,-8496.1,-12143.7,-12779.9,4748.5,-12152.4,-12309.5
-7805.8,-6880.5,-8500.1,-12163.4,-12808.1,4749.2,-12163.7,-12345
-7797.4,-6874.2,-8496.4,-12166.3,-12811.4,4747.7,-12164.7,-12358.4
-7787.6,-6856.9,-8490.7,-12150.7,-12794.1,4746.6,-12156.7,-12330.5
-7778.6,-6837.8,-8485.3,-12128.2,-12767.4,4745.5,-12147.2,-12292.7
-7768.8,-6820.8,-8481.4,-12108.7,-12742.7,4745.9,-12138,-12262.8
-7766.5,-6817.5,-8480.7,-12102.2,-12733.3,4746.5,-12134.3,-12258.3
-7781.8,-6837,-8486.4,-12111.4,-12745,4746.9,-12140.4,-12266.1
-7792,-6856.5,-8490.8,-12130.1,-12772.7,4745.3,-12152.8,-12300.3
-7803,-6875,-8498.7,-12151.2,-12805.5,4745.9,-12164,-12339.1
-7809.1,-6884.7,-8500.7,-12166.5,-12827.8,4744.3,-12170.9,-12363.1
-7802.3,-6875.6,-8494.6,-12163.7,-12819.5,4745.2,-12165.5,-12350.6
-7792.3,-6859,-8489.2,-12149.2,-12796.2,4746.3,-12155.6,-12321.8
-7778.5,-6835.1,-8483,-12128.4,-12763.8,4745.5,-12143.6,-12282.6
-7769,-6816.7,-8479.4,-12109.5,-12733.9,4746.1,-12133.3,-12247.6
-7776.7,-6826.3,-8483.4,-12110.8,-12735.6,4747,-12135.9,-12249.7
-7788.1,-6844.1,-8490.3,-12126.5,-12754.1,4748.2,-12142.8,-12272.9
-7802.6,-6866.3,-8497.9,-12148.8,-12785.9,4748.1,-12154.8,-12312.9
-7812.3,-6882.8,-8501.2,-12167.6,-12816.2,4747.7,-12165.5,-12347.5
-7810.2,-6879.5,-8498.3,-12167.9,-12823.4,4748.2,-12166.6,-12352.5
-7801.9,-6864.9,-8492.1,-12155.5,-12809.3,4747.2,-12160.1,-12334.9
-7790.1,-6845,-8485,-12137.6,-12782.3,4746.2,-12150.2,-12301.5
-7782,-6828.4,-8480.1,-12116.9,-12751.5,4746.4,-12139.7,-12259.5
-7779.3,-6826,-8481.7,-12112.7,-12742.2,4747,-12138,-12251.6
-7782.3,-6834.3,-8486.8,-12119.7,-12750.4,4747.8,-12143,-12267.3
-7790.6,-6851.2,-8492,-12133.7,-12773,4746.3,-12153.4,-12295.3
-7803.8,-6873.1,-8497.8,-12153.4,-12804.6,4744.8,-12165.2,-12332
-7810.4,-6885.4,-8500.5,-12169.5,-12825.2,4745.5,-12171.7,-12356.5
-7806.7,-6878.2,-8498.5,-12168.4,-12822,4746.1,-12169.3,-12350.1
-7795.3,-6861.1,-8493,-12155.5,-12801.2,4746.1,-12160.6,-12324.4
-7776.6,-6831.5,-8483.7,-12129.8,-12761.6,4743.7,-12145.7,-12280.9
-7772.4,-6823.2,-8481.6,-12118,-12742.4,4743.6,-12139.3,-12260.1
-7775.6,-6827.4,-8483.1,-12116.5,-12739.2,4745.1,-12138.7,-12258.5
-7782.6,-6839.4,-8486.9,-12126,-12750,4746,-12144,-12277.5
-7787.1,-6851.9,-8490.4,-12142.5,-12772.3,4745.9,-12153.5,-12315.3
-7799.8,-6870.9,-8495.2,-12160.9,-12803.6,4745.9,-12164.3,-12345.8
-7803.4,-6876.3,-8495.8,-12165.3,-12812.6,4746,-12166.5,-12349.8
-7797.3,-6865.1,-8492.2,-12156.6,-12802.6,4747.2,-12161,-12333.9
-7784.4,-6845.5,-8486.2,-12137.2,-12782,4747.4,-12150.8,-12307.1
-7777,-6831.7,-8480.6,-12115.2,-12754.6,4745,-12141.1,-12266
-7773.5,-6826,-8480,-12107.4,-12742.8,4745,-12138.7,-12255.7
-7776.3,-6832.4,-8483,-12112.9,-12749.2,4745.6,-12142.7,-12266.9
-7787.9,-6851.7,-8489.5,-12129.7,-12772.3,4744.9,-12153.4,-12295.9
-7800,-6874,-8495.6,-12152.5,-12803.9,4743.1,-12165.5,-12335.7
-7804.5,-6885,-8497.3,-12168.7,-12825.8,4742.7,-12172.7,-12360.4
-7797.3,-6876.8,-8493.1,-12167.3,-12821.7,4743.6,-12169.1,-12351.9
-7783.2,-6857,-8485.8,-12151.9,-12798.6,4741.6,-12161,-12321.9
-7774.5,-6840.3,-8480.6,-12132.8,-12771.9,4741,-12151.2,-12286.6
-7769.3,-6826.8,-8477.4,-12119.4,-12751.5,4739.7,-12144.7,-12263.1
-7771.7,-6826,-8480.2,-12115.9,-12748.3,4739.7,-12145.4,-12261.8
-7782.6,-6840.3,-8485.7,-12126.1,-12764.6,4740.4,-12152.1,-12283.3
-7794.3,-6859.9,-8491.5,-12144.8,-12789.4,4740.8,-12160.9,-12316.8
-7804.6,-6878.9,-8496.1,-12163.9,-12817.1,4741.3,-12170.6,-12350.9
-7807,-6882.4,-8495.9,-12168.9,-12826.6,4743.1,-12172,-12358.8
-7803.9,-6874.8,-8492.9,-12159.5,-12816.1,4743.9,-12166,-12337
-7791.9,-6858.8,-8487.8,-12145.9,-12794.4,4744.1,-12156.1,-12310.4
-7775.4,-6833.7,-8480.5,-12122.3,-12761.5,4744.4,-12144.2,-12271.1
-7770.6,-6822.2,-8478.3,-12109.1,-12743.2,4741.5,-12140.2,-12253.4
-7779.1,-6832.6,-8483.1,-12116.5,-12749.6,4742.4,-12143.1,-12265.4
-7790.3,-6848.6,-8488.7,-12132.7,-12771.2,4743.9,-12151.1,-12295
-7803.6,-6869.4,-8495,-12153.5,-12801.5,4743.9,-12162.3,-12333.1
-7810.2,-6883.2,-8498.9,-12169.4,-12825.8,4743.2,-12170.7,-12361.9
-7798.2,-6867.4,-8494.5,-12160.5,-12811.1,4742.9,-12164,-12345.3
-7790.3,-6855.8,-8491.2,-12150.5,-12797.6,4742.8,-12158.5,-12326.1
-7779.3,-6834.7,-8485.1,-12129.6,-12767.4,4744,-12146.4,-12288.7
-7768.3,-6815.9,-8479,-12110.5,-12735.7,4744.8,-12134.9,-12255.6
-7765.5,-6812.9,-8479.1,-12110.3,-12727.6,4745.4,-12134.1,-12261.3
-7774.6,-6825.5,-8483.2,-12119.2,-12740,4747.7,-12137.9,-12273.3
-7788.8,-6848.1,-8489.1,-12135.4,-12766.1,4749,-12148.1,-12299.1
-7801.4,-6867.6,-8493.9,-12155.1,-12801.1,4747.6,-12161.5,-12338.7
-7802.1,-6869.7,-8494.6,-12163.9,-12818.9,4745.8,-12168.1,-12357.3
-7807.6,-6873.9,-8497.1,-12163.5,-12816.8,4748.5,-12165.7,-12340.5
-7797.9,-6859.2,-8491.8,-12147.8,-12794.5,4746.6,-12157.6,-12310.3
-7782.7,-6833.7,-8484.5,-12123.7,-12763.7,4742.1,-12148.1,-12273.7
-7778.1,-6823.8,-8484,-12112.1,-12746.8,4741.2,-12143.1,-12256.4
-7783.9,-6831.2,-8489,-12117.4,-12753.2,4742.6,-12145.6,-12265.8
-7791.8,-6843.6,-8492.9,-12128.7,-12771.1,4743.5,-12152.6,-12288
-7800.9,-6860.9,-8495.7,-12148.2,-12799.5,4743.3,-12162.9,-12323.2
-7806.4,-6873.7,-8496.6,-12163.9,-12821.2,4745.1,-12169.1,-12347.4
-7806.7,-6874.6,-8495.2,-12165.3,-12826.4,4743.7,-12170.4,-12346.8
-7798.9,-6862.7,-8491.7,-12154.8,-12811.9,4744,-12163.6,-12327.1
-7786,-6842.1,-8485.9,-12135.1,-12782.4,4744.7,-12151.3,-12290.4
-7778.1,-6827.5,-8483,-12118.4,-12758.5,4744.1,-12143.2,-12261.7
-7776.1,-6823.2,-8483.2,-12111.5,-12746.4,4744.5,-12140.3,-12252.5
-7783.9,-6833,-8488.1,-12119.5,-12754.7,4745.4,-12144.7,-12268
-7795.9,-6853,-8494.7,-12137.8,-12779.3,4745.6,-12155.1,-12298.7
-7812.4,-6879.1,-8501.4,-12160.6,-12813,4745.6,-12167.7,-12332.9
-7817.8,-6890.2,-8503.7,-12175.5,-12834.9,4746.2,-12174.2,-12356.5
-7808.4,-6876.3,-8499.4,-12165.7,-12821.3,4746.4,-12167.7,-12338.8
-7798.9,-6860.2,-8495.5,-12150.3,-12798.9,4745.8,-12159.1,-12310.3
-7786.9,-6839.4,-8489.7,-12130.7,-12767.5,4744.1,-12146.8,-12272
-7779.3,-6827.9,-8485.7,-12118.6,-12748.7,4743.2,-12140.3,-12253.3
-7781.8,-6831.1,-8487,-12118.9,-12749.8,4743.2,-12142.3,-12259.5
-7788.7,-6843,-8491,-12128.4,-12764.3,4743.8,-12149.2,-12281.1
-7796.7,-6857.2,-8496,-12143.8,-12785.1,4745.4,-12157.3,-12310.2
-7809.3,-6876.6,-8501.1,-12164.9,-12817.3,4744.9,-12168.3,-12346.4
-7807.6,-6874,-8499.1,-12166.1,-12819.7,4744.2,-12167.2,-12344.5
-7797.5,-6858.9,-8493.9,-12152.9,-12802.2,4743.9,-12160.3,-12323.8
-7780.3,-6832.1,-8487.5,-12132.6,-12770.8,4743.5,-12148.2,-12296.7
-7770.7,-6812.9,-8483.2,-12111.6,-12740.2,4745.1,-12135.3,-12255.4
-7772.6,-6815.5,-8484.3,-12106.7,-12732.1,4745.4,-12134.2,-12244.8
-7783.2,-6832.8,-8490.1,-12119.2,-12751.5,4747.1,-12142.1,-12269.7
-7792,-6848,-8494,-12134.7,-12775.4,4748.4,-12150,-12299.6
-7812.8,-6878.6,-8502.4,-12158.7,-12811.2,4746.5,-12163.9,-12334
-7816.8,-6888.9,-8503.5,-12173.3,-12830.7,4745.4,-12170.4,-12356.6
-7808.8,-6877.8,-8499.3,-12166.6,-12820.4,4746,-12165.3,-12342.9
-7798.3,-6860,-8494.1,-12151.8,-12794.9,4746.2,-12154.4,-12311
-7785.9,-6837.4,-8488.6,-12131.5,-12760.4,4746.3,-12140.7,-12269.9
-7781.2,-6828.8,-8487.6,-12120.7,-12745.2,4745,-12137.2,-12251.1
-7781.2,-6830.8,-8488.9,-12120.8,-12747.6,4743.4,-12140.9,-12255.7
-7785.6,-6840.3,-8491.5,-12127.8,-12759,4745.2,-12146.3,-12273.6
-7802.5,-6869.2,-8497.3,-12151,-12794.7,4744.9,-12161.2,-12317.1
-7811.1,-6883.5,-8499.9,-12167.1,-12821.6,4742.4,-12171.9,-12349.7
-7808,-6878.4,-8496.9,-12166.5,-12822.7,4742.5,-12171,-12350
-7801.2,-6868.2,-8493.6,-12158.2,-12808.5,4744.9,-12164.3,-12330.7
-7786.4,-6845.1,-8486.7,-12137.2,-12777.2,4745.6,-12151.6,-12293.8
-7773.2,-6822.8,-8482,-12114.4,-12742.3,4747.5,-12137.8,-12255.9
-7773.9,-6823,-8483.5,-12110.4,-12732.1,4749.1,-12134.9,-12246.3
-7785.2,-6836.9,-8488.9,-12119.4,-12742.4,4748.5,-12140.1,-12257.1
-7799,-6859.9,-8496.7,-12142.3,-12774.9,4749.4,-12152.5,-12296.1
-7811.2,-6881.6,-8503.5,-12164.6,-12807.1,4749.7,-12164.4,-12335.2
-7815.9,-6892.1,-8506.2,-12177.6,-12825.6,4746.5,-12171,-12356.7
-7812,-6885.7,-8504,-12173,-12821.5,4744.5,-12168.5,-12347.3
-7801.4,-6867.7,-8498.7,-12157.6,-12800.4,4743.2,-12160.8,-12319.6
-7788.8,-6845.3,-8493,-12135.8,-12768,4742.7,-12149.8,-12279.3
-7781.7,-6832.2,-8491.3,-12120.8,-12742.3,4741.2,-12141.9,-12252.3
-7781.5,-6832.7,-8493.8,-12119.4,-12735.3,4739.8,-12141,-12252.3
-7793.4,-6851.9,-8500.2,-12135.6,-12759.8,4739,-12151.6,-12282.4
-7807.4,-6873.7,-8505.5,-12154.8,-12793.4,4738,-12165.1,-12320.7
-7816.7,-6889.5,-8508,-12171.5,-12821,4737.8,-12175.5,-12356
-7807,-6879.4,-8503.3,-12170.6,-12818.4,4736.2,-12173.6,-12362.2
-7801.3,-6867.7,-8500.1,-12160.6,-12805.1,4736.7,-12165.9,-12337.4
-7792.9,-6853,-8496.4,-12141.9,-12780,4737.4,-12156.1,-12300.9
-7782.2,-6835.8,-8492.4,-12122.3,-12753.3,4737.2,-12146.5,-12270.2
-7780.2,-6831.6,-8492.6,-12116.6,-12745.6,4737,-12143.6,-12267.4
-7793.5,-6847.1,-8495.4,-12127.4,-12754.9,4737.6,-12147.4,-12272.3
-7804.7,-6866.4,-8498.9,-12145.9,-12779.8,4738.9,-12157,-12303.8
-7815,-6885.3,-8503,-12166.2,-12811.2,4739.1,-12168.2,-12343.7
-7816.5,-6890.8,-8503.5,-12175.4,-12828.1,4739.3,-12173.4,-12362.3
-7806.8,-6877.3,-8498.5,-12166.8,-12819.7,4740.1,-12167.9,-12347.6
-7796.2,-6861.5,-8495.3,-12151.6,-12799.3,4741.9,-12158.6,-12320.6
-7782,-6836.9,-8487.6,-12130,-12765.3,4742.8,-12145,-12278.4
-7772.2,-6820.2,-8480.7,-12112.9,-12737.4,4743.6,-12135.1,-12247
-7778.3,-6829.5,-8483.4,-12114.4,-12739.4,4742.9,-12137.5,-12252.3
-7787.1,-6846.3,-8489.7,-12128,-12758.7,4743,-12145,-12277
-7799.5,-6869.2,-8498.6,-12149.8,-12789.2,4743.9,-12156.3,-12314
-7811.7,-6891,-8505.1,-12169.8,-12820.4,4743.8,-12168.1,-12348.7
-7811.4,-6892.4,-8504.1,-12175.8,-12827.8,4741.7,-12170,-12356.2
-7803.4,-6878.1,-8499.4,-12165.8,-12811.4,4740.9,-12162.6,-12335.9
-7793.1,-6858.7,-8496.2,-12146.3,-12781.9,4741.5,-12151,-12299.1
-7786.6,-6842.2,-8492.3,-12124.6,-12752.4,4740.3,-12141.5,-12258
-7786.6,-6838.9,-8492.3,-12120.3,-12745.1,4739.3,-12140.4,-12251.8
-7796.8,-6850.8,-8498.4,-12130.5,-12753.1,4740,-12144.1,-12270.1
-7814.7,-6875,-8509.7,-12150,-12775.3,4740.3,-12152.7,-12300
-7834.2,-6903.3,-8522.3,-12172.8,-12805.8,4740.3,-12163.3,-12335
-7840.5,-6915.1,-8522.3,-12185.8,-12828.1,4740.1,-12170.2,-12361
-7820.8,-6895.2,-8507.7,-12172.3,-12822.3,4739.7,-12166.2,-12352
-7793.2,-6857.1,-8490.7,-12146.9,-12800.6,4737.6,-12158.2,-12326
-7763.9,-6810.1,-8475,-12115.3,-12760.8,4733.4,-12145.7,-12282.6
-7756.5,-6794.5,-8469.4,-12101.6,-12739.2,4733.9,-12138.5,-12259.6
-7761.8,-6802.6,-8471.1,-12106.6,-12739.8,4737.5,-12139.4,-12262.7
-7770.4,-6817.1,-8475.9,-12118.9,-12754.8,4737.5,-12147.1,-12285.3
-7777.2,-6832.5,-8480.2,-12136.4,-12778.2,4738.1,-12156.8,-12325.9
-7783,-6842.9,-8480.4,-12147,-12802.8,4740.1,-12164,-12347.3
-7781.7,-6841.6,-8478.7,-12147.5,-12812.2,4739,-12167.5,-12349.9
-7774.2,-6833.6,-8475.7,-12142,-12805.7,4738.8,-12164.4,-12339.5
-7759.1,-6809.7,-8466.4,-12121.7,-12780.3,4739.1,-12153.1,-12309.4
-7755.7,-6797.9,-8462.4,-12099.6,-12754.7,4740.2,-12143.2,-12268.8
-7751.9,-6787.9,-8461.8,-12086.7,-12742.4,4741.2,-12139.8,-12254.9
-7754.3,-6791.9,-8463.9,-12089.4,-12753.4,4741.4,-12145.2,-12270.3
-7763.1,-6806.7,-8467.7,-12104.2,-12777,4740.2,-12155.2,-12299.7
-7775.3,-6824.6,-8473.1,-12125.6,-12808.1,4738.7,-12167.7,-12336.4
-7781.8,-6835.7,-8475.7,-12142.2,-12830.7,4737.6,-12176,-12362.8
-7773.9,-6825.4,-8470.9,-12138.5,-12825.3,4734.8,-12174.1,-12355.1
-7760.5,-6804.6,-8464.3,-12121.3,-12801.3,4734,-12163.9,-12325.8
-7750.5,-6786.1,-8459.1,-12100.9,-12772.6,4733.7,-12153.1,-12288.7
-7745.5,-6774.5,-8458.1,-12086.9,-12752.3,4732.5,-12147,-12265.7
-7747.5,-6778.5,-8460.5,-12086.4,-12751.8,4731.8,-12148.5,-12268.5
-7757.2,-6793.2,-8465,-12095.4,-12767.6,4731.1,-12156.8,-12288.5
-7770.1,-6811.8,-8472.4,-12114.2,-12793.3,4732.6,-12167.3,-12321
-7782.4,-6833.2,-8479.4,-12139.6,-12823.5,4733.1,-12178.5,-12356.3
-7782.3,-6836,-8478.5,-12146.8,-12831.9,4731.2,-12181.1,-12363
-7777.7,-6824.9,-8474.2,-12133.7,-12816.7,4732.3,-12173.8,-12337.9
-7768.6,-6808.5,-8470,-12118.9,-12797,4733.2,-12165.2,-12312.9
-7754.8,-6789.1,-8463.4,-12098,-12766.8,4732.6,-12153.7,-12279.9
-7749.6,-6782.2,-8459.6,-12085.5,-12750.1,4731.9,-12148.6,-12263.2
-7756.1,-6791.6,-8463.6,-12089.4,-12756.6,4732.2,-12152.3,-12272.7
-7767.5,-6812.6,-8471.3,-12109.2,-12780,4734.9,-12160.4,-12305.2
-7781.4,-6839.4,-8478.2,-12136.3,-12814,4736.5,-12171.7,-12349.6
-7781.1,-6841.2,-8476.3,-12144,-12825.4,4735.4,-12174.7,-12362.6
-7770.7,-6825.2,-8472.3,-12134.2,-12811,4734.8,-12168.4,-12347.9
-7766,-6816.4,-8470.5,-12126.8,-12798.8,4736.8,-12161.7,-12332.6
-7754.4,-6794.4,-8463.9,-12104.1,-12763.5,4737.8,-12147.4,-12286.8
-7748.6,-6781,-8463.1,-12088,-12735.1,4739.9,-12137.4,-12256.7
-7750.4,-6784.5,-8466.8,-12091.9,-12735.5,4738.3,-12140.6,-12271.8
-7756.7,-6793.5,-8468.7,-12099.5,-12747,4735.7,-12146.3,-12283.1
-7769.8,-6813.8,-8473.9,-12115.2,-12773.3,4735.7,-12157.2,-12309.2
-7782.6,-6832.9,-8479.8,-12134.5,-12807.2,4735.5,-12169.9,-12350
-7783.3,-6836,-8479.9,-12141.7,-12820.6,4735.8,-12172.2,-12365.9
-7783.1,-6832,-8477.9,-12132.8,-12810.4,4735.7,-12167.9,-12338.7
-7776.7,-6819,-8474.3,-12121.2,-12793.8,4735.5,-12162.6,-12315.6
-7764.6,-6798.5,-8469,-12102.6,-12764.5,4735.6,-12151.7,-12280.6
-7761,-6791.5,-8469,-12094.5,-12751.8,4735.3,-12147.8,-12266.5
-7763,-6791.9,-8470.3,-12096.3,-12753.1,4734.3,-12149.7,-12271
-7771.3,-6805.1,-8475,-12107.8,-12767,4735.6,-12155,-12290.5
-7785.8,-6832.6,-8482.4,-12133.3,-12801,4737.5,-12167.5,-12332.8
-7788.5,-6841.6,-8483.1,-12147,-12820.5,4737.7,-12174.2,-12355.2
-7786.2,-6839,-8479.8,-12145.4,-12818.9,4738.8,-12171.6,-12348
-7778.6,-6825.9,-8475.7,-12134.7,-12803.1,4739.1,-12164,-12327.3
-7765.7,-6804,-8470,-12114.9,-12774.8,4737.7,-12153.8,-12294.1
-7757.3,-6786.6,-8467.1,-12095.8,-12746.4,4739.3,-12143.6,-12259.8
-7759.4,-6787.7,-8469.9,-12094,-12741.5,4741.1,-12142.7,-12257.7
-7765.2,-6799,-8472.8,-12101.2,-12751.1,4742.9,-12147,-12272.5
-7775,-6819,-8476.5,-12117.7,-12775.7,4742.7,-12156.8,-12302
-7790.8,-6842.6,-8483.1,-12138.8,-12808.6,4743.4,-12169,-12333.4
-7794.3,-6851.4,-8484.9,-12153.3,-12828.6,4742.9,-12175.4,-12354.3
-7784.3,-6837.4,-8480.2,-12145,-12817.4,4742.8,-12169.2,-12339.9
-7775.7,-6820.2,-8476.1,-12129.6,-12793.9,4745.9,-12157,-12309.1
-7765.1,-6799.7,-8471.6,-12108.3,-12763,4745.2,-12146.1,-12270
-7760.2,-6792.1,-8471.8,-12099.6,-12747.5,4742.3,-12144.3,-12255.1
-7768.6,-6803.5,-8478.5,-12107.8,-12757.8,4742.6,-12149.9,-12271.1
-7775.5,-6812.4,-8482.3,-12116.9,-12769.7,4742.2,-12154.3,-12288.4
-7782,-6822.6,-8487.4,-12129.4,-12787,4742.8,-12160.6,-12314.6
-7795.1,-6845.5,-8492.7,-12152.8,-12822.1,4743.4,-12172.5,-12356
-7792.3,-6841.9,-8488.1,-12151.6,-12822.6,4742.4,-12171,-12352.2
-7784.3,-6827.7,-8483.8,-12137.5,-12803.4,4741.9,-12163.8,-12330.5
-7766.2,-6801,-8476.6,-12115.1,-12768.7,4740.7,-12152.5,-12299.2
-7756.2,-6780.9,-8471.1,-12092.6,-12738,4739.7,-12141.3,-12260
-7760.1,-6782.9,-8472.9,-12089.1,-12733.6,4739.2,-12141.2,-12254.5
-7764.5,-6790.9,-8475.2,-12095.1,-12743.8,4738.6,-12146.1,-12270.7
-7777.2,-6812,-8482,-12115.1,-12774.8,4739.9,-12157,-12314
-7799.5,-6843.2,-8490.6,-12138,-12810.2,4742.7,-12167.8,-12345
-7802.3,-6849.8,-8491.9,-12146.9,-12824.7,4742.7,-12172.2,-12358.6
-7794.3,-6840.4,-8487.6,-12142.3,-12820.1,4740.7,-12169.7,-12351.6
-7781,-6821.7,-8480,-12125.8,-12797.4,4739,-12160.9,-12323.1
-7766.4,-6797,-8472.9,-12101.2,-12759.5,4741.7,-12145.4,-12277.4
-7761.2,-6786.5,-8471.1,-12088.4,-12741.4,4742.6,-12140,-12255.3
-7763.4,-6788.6,-8473.7,-12088.7,-12741.8,4742.4,-12141.7,-12257.6
-7772.4,-6802,-8480.3,-12100.9,-12759,4738.4,-12151.3,-12282.5
-7790.8,-6832.2,-8489.4,-12126.1,-12794.5,4739,-12165.3,-12324.4
-7800.8,-6849.7,-8493.8,-12144.5,-12820.5,4739.8,-12173.6,-12351.6
-7800,-6850.3,-8492.1,-12147.5,-12827.8,4739.1,-12174.9,-12357.9
-7790.4,-6835.8,-8485.8,-12135.2,-12813.3,4740.6,-12166.8,-12335.8
-7775.6,-6810.5,-8478.5,-12114.3,-12780.6,4740.2,-12153.6,-12297.3
-7766,-6790.1,-8474.5,-12095.2,-12749.3,4741.4,-12142.9,-12261.7
-7765.8,-6788.2,-8474.3,-12089.4,-12739.8,4742.1,-12140.4,-12252.1
-7776.8,-6803,-8477.8,-12097.7,-12750.7,4741.8,-12145.1,-12264.9
-7791.5,-6828.3,-8484.9,-12121.8,-12784.3,4743.6,-12157.5,-12306.8
-7801,-6848.3,-8489.1,-12142.5,-12814,4744.4,-12168.1,-12343.6
-7803.8,-6855.6,-8490.2,-12151.8,-12830.8,4744.1,-12173.4,-12361.4
-7797.2,-6846.3,-8486,-12143.9,-12820.5,4744.5,-12166.5,-12345.3
-7785.2,-6827.9,-8480,-12127.1,-12795.8,4745.6,-12155.5,-12315.9
-7770.9,-6804.3,-8473.2,-12104.5,-12763.6,4745,-12143.1,-12278.9
-7760.8,-6786.5,-8469.5,-12088.6,-12735.1,4745.4,-12132.9,-12250.1
-7758.2,-6782,-8471.2,-12085.8,-12728.6,4745,-12134.4,-12248.1
-7770.9,-6804.6,-8477.2,-12103.3,-12753.2,4747.1,-12144.2,-12279.3
-7786,-6828.6,-8484,-12125.2,-12783.9,4747.2,-12154.6,-12315.8
-7796.2,-6844.2,-8487.6,-12144,-12813.5,4744.4,-12168.7,-12351.4
-7789.4,-6837.4,-8485.6,-12146.5,-12816.3,4743.8,-12171,-12360.1
-7781,-6822.6,-8481.6,-12134.3,-12798.9,4744.3,-12161.4,-12330.1
-7771.4,-6807.3,-8477.7,-12117.9,-12772.5,4744.1,-12151.8,-12294.3
-7759.7,-6788.1,-8471.8,-12097.5,-12744.1,4743.8,-12142.3,-12262.6
-7757.6,-6782.6,-8471.6,-12088.3,-12733.7,4744.7,-12138.7,-12255.8
-7775.5,-6807.7,-8479.5,-12101.3,-12750.7,4745.6,-12146.1,-12268.4
-7786.8,-6828.9,-8485.2,-12119.8,-12776.7,4746,-12156.2,-12301.1
-7798.5,-6846.7,-8491.7,-12138.9,-12808.6,4746.2,-12168.1,-12337.8
-7803.9,-6854.5,-8494.5,-12149.9,-12827.7,4745.7,-12174.3,-12355.8
-7797.4,-6845.2,-8490.5,-12145.3,-12822.5,4744.2,-12171.3,-12346.3
-7784.9,-6825.3,-8483.7,-12127.1,-12799.1,4743.4,-12161.7,-12317.2
-7768.6,-6798.1,-8476.2,-12101.5,-12762.9,4742.9,-12148.3,-12274.1
-7760.4,-6785.9,-8473.6,-12089,-12738.6,4744,-12139.2,-12249.2
-7768.1,-6796.3,-8476.1,-12094.8,-12744.5,4742.5,-12144,-12257.3
-7778.9,-6809.5,-8481.6,-12106.2,-12763.2,4739.8,-12153.2,-12280
-7793,-6834.7,-8489.3,-12129.1,-12798.5,4736.7,-12167.9,-12325.3
-7805.3,-6857.1,-8495.4,-12150.9,-12832.2,4737.3,-12179.6,-12363
-7801.5,-6852.1,-8493.4,-12149.8,-12832.4,4737.4,-12177.3,-12360.4
-7791.6,-6834.4,-8488.9,-12135.4,-12813.9,4738,-12168.5,-12336.9
-7779.6,-6813.1,-8481.8,-12115.2,-12783.6,4739.2,-12156,-12299.3
-7771.8,-6796.7,-8477.3,-12094.1,-12752.1,4740.4,-12145.2,-12256.7
-7771,-6795.8,-8478.8,-12091,-12746.7,4739.5,-12146.6,-12252.8
-7776,-6807.2,-8483.3,-12101.2,-12759.8,4739.5,-12153.2,-12272.5
-7786,-6824,-8489.2,-12117.6,-12783.6,4739.3,-12162.1,-12302
-7800.8,-6848.1,-8496.3,-12140.2,-12817.3,4738.6,-12173.6,-12340.7
-7806.7,-6859.6,-8499.1,-12155,-12837.1,4738.6,-12179,-12362.6
-7803.1,-6853.1,-8497.5,-12152.4,-12833.4,4739.8,-12176.3,-12355.6
-7785.9,-6826.9,-8487.9,-12131.3,-12801.2,4741.3,-12162.3,-12317.4
-7762.9,-6793.1,-8476.7,-12100.7,-12752.8,4741.3,-12144.5,-12264.8
-7758.8,-6785.9,-8474.3,-12089.7,-12737,4740.7,-12139.8,-12248.7
-7765.5,-6794.7,-8478.1,-12094.7,-12742.1,4739.6,-12143.2,-12257.7
-7775.5,-6812.7,-8484.3,-12110.9,-12759.1,4740.4,-12150.3,-12283.7
-7782.8,-6826.2,-8491.3,-12127.9,-12782.3,4741.4,-12160.2,-12319.5
-7796.1,-6844.5,-8498.3,-12143.2,-12807.7,4743.2,-12167.5,-12342.1
-7799.6,-6849.8,-8499,-12147.1,-12818,4745.2,-12169.2,-12344.7
-7792.1,-6838.4,-8495.2,-12136.2,-12807.2,4745.4,-12163.4,-12327.6
-7777.1,-6814.9,-8486.9,-12114.9,-12781.5,4742.1,-12153.6,-12298.9
-7774.8,-6806.3,-8484.1,-12097.7,-12757.8,4742.9,-12145.6,-12260.7
-7773.4,-6804.7,-8483.1,-12092.8,-12748.9,4742.1,-12143.4,-12252.8
-7775.6,-6810.5,-8483.4,-12098.5,-12757.2,4739.8,-12149.4,-12267.7
-7784.9,-6825.1,-8486.8,-12113.1,-12780.2,4740.1,-12158.4,-12297.8
-7797.2,-6846.1,-8493.7,-12133.8,-12812.9,4740.4,-12169.5,-12337.4
-7801.4,-6854.8,-8496.6,-12146.8,-12831.6,4741.3,-12174.3,-12358.1
-7793.1,-6845.1,-8492.3,-12141.1,-12821.2,4743.4,-12167.2,-12342.5
-7778,-6824.2,-8483.3,-12124.8,-12794,4743.3,-12154.2,-12310.9
-7768.9,-6806.4,-8476.7,-12105.4,-12765.4,4743.2,-12144,-12274.9
-7766.1,-6795.7,-8475.3,-12093,-12746.5,4742.4,-12139.8,-12250.9
-7770.8,-6799.9,-8478.7,-12093.7,-12745.5,4741.9,-12141.1,-12253.9
-7779.8,-6817.6,-8484,-12105.9,-12764.9,4741.4,-12149.3,-12279.3
-7788.9,-6836.1,-8488.8,-12123.4,-12794.6,4740.4,-12161.6,-12314.1
-7796.5,-6853,-8492.6,-12141.5,-12822.4,4740.2,-12172.2,-12346.3
-7797.1,-6856.7,-8492.2,-12147.8,-12828.5,4739.6,-12173,-12352.3
-7793.7,-6848.4,-8489.1,-12139.4,-12816.6,4740.6,-12166.7,-12330.5
-7784.1,-6831.5,-8484.7,-12127.3,-12798.1,4737.9,-12160,-12309.5
-7768.4,-6802.8,-8477.7,-12104.5,-12763.6,4736.4,-12147.7,-12272
-7766.1,-6795,-8477.6,-12094.6,-12748.5,4738.1,-12142.8,-12256.5
-7774.1,-6808.4,-8482.6,-12100.9,-12756,4738.4,-12147.4,-12266.6
-7785.1,-6826.3,-8488.9,-12116.6,-12777.5,4738.7,-12156,-12294.3
-7797.8,-6847.4,-8495,-12137.7,-12808.4,4740.6,-12166.9,-12331.5
-7801.7,-6855.7,-8496.3,-12148,-12826.2,4741.4,-12171.6,-12351.8
-7789.7,-6839.5,-8490.9,-12137.1,-12811.9,4741.6,-12164.3,-12335.4
-7782.6,-6827.7,-8487,-12127.8,-12799.2,4740.3,-12158.7,-12318.4
-7770,-6804.1,-8480.2,-12107,-12769.2,4739.8,-12147,-12279.2
-7759.2,-6787.1,-8475.6,-12088.3,-12742.3,4738.4,-12140.2,-12251.3
-7756.2,-6786.8,-8476.5,-12088.2,-12738.9,4738.3,-12142.7,-12262.3
-7764.9,-6798.5,-8480.5,-12097,-12752.2,4738.5,-12147.1,-12276.4
-7780.8,-6826.3,-8487.5,-12118.6,-12783.2,4740.3,-12157.3,-12310.1
-7792.3,-6847.7,-8491.8,-12139.5,-12817.3,4741.3,-12168.3,-12350.3
-7787.6,-6843.9,-8489.9,-12141.6,-12824.8,4741.4,-12169.2,-12359.2
-7786.5,-6841.4,-8487,-12134.1,-12815.3,4741.9,-12165.2,-12335
-7775.9,-6824.6,-8481.2,-12120.7,-12794.2,4740.9,-12158.4,-12308.3
-7759,-6794.4,-8473.5,-12095.5,-12758,4740.8,-12144.9,-12266.5
-7757,-6788.1,-8473.9,-12086.5,-12744.2,4743.8,-12138.9,-12253.5
-7762.5,-6796.7,-8477.9,-12093,-12749.1,4745.2,-12140.8,-12263.1
-7773.2,-6814.4,-8484.3,-12109.9,-12769.8,4745.9,-12148.4,-12290.8
-7782.7,-6834.7,-8488.5,-12131.3,-12797.4,4745,-12158.5,-12324.3
-7786.7,-6846,-8489.9,-12145.1,-12816.6,4744.7,-12164.9,-12345
-7787.4,-6844.5,-8488.8,-12144.5,-12819.9,4744.9,-12164.2,-12342.2
-7777.3,-6827.9,-8482.6,-12131.1,-12802.8,4743.7,-12156.6,-12319.9
-7764.1,-6806.1,-8475.5,-12109,-12773.2,4744.4,-12145.1,-12284.2
-7757.1,-6791.2,-8473.4,-12090.8,-12747.9,4745.4,-12135.5,-12253.1
-7758.8,-6790.8,-8477.2,-12086.5,-12742.6,4745,-12135.5,-12251.6
-7765.6,-6802.8,-8480.8,-12095.9,-12755.3,4746.5,-12140.4,-12269.5
-7777.6,-6824.8,-8485.6,-12116.3,-12779,4748,-12147.9,-12299.9
-7792.1,-6846.8,-8490.9,-12134.9,-12807.9,4747.7,-12159.3,-12329.6
-7795.1,-6854.6,-8492.1,-12145.8,-12825.1,4748.3,-12164.1,-12346.6
-7785.2,-6838.2,-8487.2,-12136.3,-12813.9,4747.3,-12158.6,-12331.2
-7773.7,-6815.8,-8481.9,-12116.8,-12787.2,4748.3,-12147.8,-12296.6
-7765.3,-6796.8,-8477,-12096.8,-12758.1,4748,-12136.8,-12259.9
-7762.4,-6788.6,-8477,-12087.8,-12744.6,4744.7,-12134.3,-12246.8
-7766.8,-6795.5,-8481.3,-12092.8,-12753.8,4743.2,-12140.4,-12259.9
-7771.5,-6810.2,-8484,-12105.5,-12771.4,4741.9,-12149.1,-12284.5
-7776.6,-6825.2,-8487.4,-12121.6,-12791.3,4741.8,-12157.4,-12313.9
-7786.8,-6845.8,-8489.7,-12142,-12821.3,4743.5,-12166.8,-12348.7
-7781.2,-6839.1,-8483.6,-12137.5,-12816.6,4744.5,-12162.9,-12340
-7773.6,-6824.6,-8481,-12125.5,-12799.5,4745.8,-12156.1,-12321.6
-7755.9,-6797,-8475.5,-12104.6,-12766.1,4746.8,-12144.7,-12288.4
-7747.5,-6776.9,-8471.1,-12082,-12734.2,4744.9,-12133.3,-12244.6
-7756.6,-6786.1,-8475.6,-12082.5,-12735.5,4744,-12137,-12245.7
