EEG1,EEG2,EEG3,EEG4,EEG5,EEG6,EEG7,EEG8
0,0,0,0,0,0,0,0
-7348.5,-6303.1,20099.5,-5207.2,13143.4,-1798.6,-2354.5,-3242.6
-7339.1,-6293,20094,-5194.6,13141.1,-1776.5,-2339,-3233.4
-7333.9,-6287.2,20088.5,-5184.5,13139,-1764.1,-2324.5,-3225.8
-7335.8,-6290.8,20086.7,-5184.2,13138.9,-1769.8,-2319.6,-3224.5
-7339.6,-6297.2,20085.1,-5189.4,13138.1,-1782.3,-2323.3,-3228.7
-7336.1,-6307.9,20077.2,-5208,13116.2,-1814.2,-2345.6,-3256.4
-7333.7,-6314.7,20073,-5221.2,13096,-1823.2,-2359.4,-3271.6
-7335.5,-6318.7,20075.3,-5223.1,13094.4,-1821.7,-2362,-3268.5
-7334.4,-6312.1,20076.9,-5213,13094.5,-1807.3,-2355,-3258.5
-7337.9,-6300.6,20082.1,-5190.8,13096,-1781.9,-2335.4,-3240.3
-7330.8,-6296.3,20082.9,-5179.3,13101.7,-1765.3,-2322.6,-3226.1
-7328.1,-6300.7,20081.8,-5179.4,13104.8,-1761.4,-2313.9,-3221
-7335.1,-6307.6,20082,-5184.5,13106.7,-1772.8,-2314.8,-3221.5
-7339,-6318.9,20083,-5198.5,13104.1,-1789.8,-2323.6,-3227.1
-7348.1,-6331.1,20086.8,-5213.7,13105,-1813.5,-2339.2,-3234.9
-7351,-6335.3,20091.3,-5217.1,13108.7,-1826,-2353.5,-3237.4
-7347.5,-6333,20092.8,-5220.1,13106.3,-1819.5,-2358.2,-3236
-7330.5,-6321,20088.5,-5218.8,13087.5,-1796,-2350.6,-3236.9
-7320.2,-6312.1,20084,-5203.4,13083.1,-1770.3,-2335.5,-3228.7
-7316.2,-6308.9,20080.9,-5192.5,13083.9,-1757.3,-2322,-3220.9
-7321,-6312.1,20080.7,-5189.3,13087.4,-1764.4,-2317.9,-3218.9
-7330,-6320.7,20084.2,-5193.7,13094.6,-1785.2,-2324.6,-3221
-7340.4,-6331.1,20089,-5205.3,13100.1,-1812.1,-2338.2,-3228.3
-7346.7,-6338.6,20093.7,-5215.6,13104.8,-1831.1,-2353.4,-3234.2
-7350.1,-6337.3,20095.7,-5217.6,13109.4,-1830.5,-2361.5,-3233.5
-7358.3,-6331,20097.3,-5212.2,13124.2,-1816.6,-2357.5,-3221.3
-7353,-6319.4,20097.2,-5200.5,13134.3,-1800.1,-2349.3,-3209.8
-7342.8,-6309.4,20092.8,-5188.7,13135.1,-1777.3,-2336.3,-3201.7
-7341.6,-6310.3,20088.7,-5184.1,13136.4,-1765.4,-2323.7,-3197.1
-7352.4,-6322.6,20092.3,-5189,13148.9,-1777.1,-2320.2,-3194.8
-7362.8,-6330.9,20097.1,-5199.6,13157.2,-1800.5,-2327.9,-3198.9
-7370.7,-6337.9,20101,-5211.6,13159.4,-1826.5,-2344.6,-3209.5
-7375.8,-6340.1,20103.3,-5220.2,13162.9,-1843,-2361.1,-3217.7
-7377.6,-6335.8,20098.8,-5220.2,13176.3,-1834.5,-2365.9,-3212.1
-7372,-6327.6,20094.7,-5211.3,13181.1,-1816,-2361,-3204.7
-7361.3,-6315.7,20088.8,-5199.7,13176.8,-1791.5,-2350.4,-3197.9
-7350.7,-6304.9,20081.2,-5189.1,13170.7,-1772.9,-2337.2,-3195.7
-7333.2,-6302,20068,-5192.5,13144.2,-1780.1,-2338.9,-3217.7
-7329.5,-6309.1,20060.4,-5201.5,13121.9,-1788,-2339.4,-3232.8
-7343.8,-6323.4,20064.5,-5213.9,13121.4,-1812.8,-2344.3,-3240.2
-7356.7,-6332.6,20071.6,-5220.5,13123.9,-1830.3,-2354,-3242.1
-7368.3,-6334,20081.5,-5214.8,13126.9,-1827.8,-2354.7,-3234.4
-7366.9,-6330,20085.8,-5209.6,13133.4,-1817.6,-2354.8,-3227.1
-7355.4,-6317.6,20084.9,-5199.9,13134.3,-1799.4,-2349,-3220.9
-7342.8,-6304.2,20081.1,-5187.3,13131.7,-1776.4,-2336.8,-3212.5
-7336.6,-6300.6,20076.8,-5183.4,13125.3,-1768.8,-2328.3,-3211.2
-7342.1,-6306.7,20075.6,-5188.2,13122.3,-1779.6,-2328.6,-3214.6
-7350.3,-6316.4,20077.4,-5195.7,13123.8,-1796.4,-2334.5,-3218.6
-7362.5,-6331.6,20081.6,-5212.3,13123.8,-1823,-2347.7,-3228.1
-7359.7,-6335.3,20083.7,-5225.9,13112.8,-1836.8,-2362.6,-3238.1
-7355.7,-6330.6,20083.6,-5221.7,13109.7,-1826,-2367,-3236.8
-7351.3,-6324.3,20083.2,-5212.9,13111,-1811.3,-2362.6,-3230.4
-7339.7,-6312.8,20080.4,-5197.5,13111.6,-1787.2,-2349.7,-3219.4
-7334.5,-6307.9,20079,-5185.4,13115.1,-1772,-2335.4,-3210
-7338.1,-6312.8,20079.6,-5187.4,13117.8,-1779.8,-2330.2,-3209.3
-7344.9,-6320,20081.7,-5193.6,13120.4,-1795.4,-2335.4,-3212.9
-7359.9,-6331.9,20085.3,-5204,13125.3,-1813.9,-2346.3,-3217.2
-7382.1,-6343.7,20094.6,-5213.3,13142.9,-1837.4,-2359.9,-3216.3
-7386.4,-6342.9,20102.1,-5214.9,13155.6,-1846.9,-2373.3,-3214.6
-7374.5,-6335.7,20101.1,-5212.5,13156.9,-1826.9,-2372.3,-3211.3
-7363.2,-6325.8,20098.2,-5203.1,13157.5,-1802.5,-2359.6,-3205.4
-7358.4,-6319.3,20098.9,-5192.3,13167.6,-1786.2,-2343.7,-3194.7
-7358.3,-6315.4,20099.3,-5187.8,13172.7,-1780.5,-2333.3,-3189.5
-7362.5,-6319.2,20099.6,-5193.7,13173.2,-1790.1,-2333.3,-3193.5
-7373.1,-6330.1,20100,-5206.7,13176.7,-1807.6,-2340.2,-3200.2
-7391,-6346.1,20098.8,-5224.2,13192.8,-1831.5,-2354.1,-3204
-7395.7,-6351.7,20099.6,-5232,13200.6,-1843.8,-2366.7,-3207.1
-7388.3,-6344.8,20098.8,-5232.8,13199.4,-1835,-2371.3,-3207.8
-7376.7,-6333.9,20093.8,-5224.7,13193.6,-1817.7,-2368.2,-3208.8
-7345.7,-6314.9,20078.5,-5212,13164.3,-1797.7,-2365.2,-3223.4
-7327.9,-6305.4,20066.5,-5202.4,13138.4,-1772.5,-2348.9,-3227.8
-7334,-6312.8,20065.3,-5201.8,13134.1,-1774.3,-2336.4,-3225.2
-7344.2,-6319.7,20069.2,-5203.2,13133.9,-1790.5,-2336.3,-3224.6
-7364.4,-6329.4,20079.5,-5204.6,13137.5,-1808,-2338.6,-3223.6
-7378.7,-6341.2,20087.8,-5215.6,13146.3,-1831.5,-2353.9,-3227.7
-7376.9,-6341,20091.9,-5221.5,13150,-1836.1,-2364.8,-3229.4
-7368.6,-6332.7,20092.1,-5218.1,13149.2,-1821.5,-2364.9,-3226.9
-7355.3,-6321.4,20089.4,-5210,13143.2,-1803,-2358.2,-3224.4
-7344.7,-6308.8,20085.2,-5197.4,13138.5,-1779.1,-2344,-3217.2
-7344.1,-6306.1,20082.4,-5190.6,13137.4,-1770.2,-2331.6,-3213.1
-7349.2,-6316.8,20083.4,-5198.5,13135.9,-1786.2,-2331.4,-3217.8
-7348.1,-6324.2,20083.7,-5211,13124.7,-1802.8,-2338.3,-3227.6
-7359.1,-6337.2,20086.1,-5221.9,13123.6,-1822.5,-2351.3,-3235
-7366.7,-6345.8,20090.6,-5230,13127.4,-1838.6,-2365.6,-3238.6
-7364.9,-6340.4,20092.3,-5224.4,13129.9,-1832.1,-2371.1,-3234.8
-7358.4,-6333,20093.9,-5215.9,13133.9,-1819.4,-2367.6,-3228.7
-7348.6,-6318.3,20092.5,-5204.6,13133.6,-1800.1,-2358.2,-3221.3
-7343.5,-6309.5,20088.3,-5193.3,13132,-1779.8,-2343.3,-3214.2
-7345.8,-6315.3,20086.8,-5192.7,13134.2,-1779.4,-2334.6,-3211.4
-7364,-6327.2,20092,-5198.9,13149.7,-1797,-2334.7,-3206.6
-7377.8,-6336.6,20098.3,-5209.6,13163.1,-1820.4,-2344.1,-3209.4
-7388.1,-6347,20103.1,-5223.3,13169.7,-1841.7,-2359.4,-3218.8
-7385.4,-6348.5,20106.1,-5226.4,13173.3,-1843.4,-2370,-3221.9
-7385.6,-6345.8,20109.6,-5220.2,13184.1,-1830.9,-2368.2,-3216.1
-7381.6,-6335.5,20109.5,-5210.9,13188.7,-1814.7,-2361,-3210
-7368.2,-6319.9,20105.3,-5197.7,13185.3,-1792,-2349.8,-3205.1
-7367.4,-6318.5,20099.2,-5196,13184.2,-1778.5,-2337.2,-3202.6
-7379.4,-6326.5,20092.9,-5204.4,13197.2,-1785.8,-2333,-3198.6
-7389.2,-6333.3,20091.2,-5208.1,13203.9,-1798.7,-2335.5,-3200.7
-7401.8,-6347.3,20094.7,-5222.5,13205.3,-1827.8,-2350.4,-3212.8
-7403.3,-6347.4,20095.3,-5227.2,13203,-1840.5,-2365.3,-3224.5
-7381,-6339.5,20085.2,-5231.7,13177.4,-1840.2,-2379.8,-3247.7
-7359,-6330.6,20076.1,-5229.4,13153,-1812.9,-2372.5,-3253.3
-7349.2,-6324.3,20073.2,-5215.1,13146.9,-1788.1,-2354.2,-3243.8
-7348.1,-6316.6,20072.8,-5199.7,13144.1,-1774.1,-2336.8,-3234.1
-7361,-6315.4,20078.5,-5187,13144.9,-1770.6,-2321.7,-3224.2
-7368.7,-6325.7,20084.2,-5189.9,13152.2,-1789.9,-2326.4,-3223.3
-7374.6,-6336.8,20088,-5200.5,13156.5,-1808.8,-2338.2,-3227.5
-7380.5,-6346.1,20092.5,-5213.2,13159.2,-1828.9,-2353.9,-3233.8
-7379.5,-6345,20094.3,-5219.3,13155.8,-1835.8,-2367.4,-3239.8
-7374.2,-6340.4,20094.3,-5217,13152.6,-1824,-2368.5,-3238.6
-7366,-6333.4,20092.8,-5208.3,13151,-1806.6,-2361.5,-3232.3
-7353.7,-6322.6,20089.7,-5199.5,13146,-1786.7,-2347.5,-3225.4
-7341.7,-6316.6,20085.9,-5199.6,13132.1,-1776.4,-2334.7,-3225.5
-7346.8,-6323.7,20085.3,-5202.4,13129.1,-1783.9,-2331.6,-3226.7
-7356.3,-6331.9,20087.2,-5208.7,13131.6,-1803.1,-2339.2,-3230
-7367.9,-6342.2,20090.6,-5218.5,13135.3,-1824.3,-2352.3,-3234.3
-7375.2,-6349.7,20096.2,-5225.7,13142,-1840.6,-2365.8,-3237.2
-7372.8,-6346.2,20099,-5225.3,13144.7,-1838.2,-2371.6,-3235.6
-7367.6,-6341.9,20099.4,-5221.7,13145.1,-1822.6,-2368.5,-3229.7
-7359.6,-6330.4,20097.4,-5210.6,13145.5,-1802.8,-2358.9,-3221.3
-7361.1,-6320.6,20098.7,-5196.2,13157.1,-1787.5,-2343.7,-3207.1
-7366.4,-6322.7,20101.2,-5193.8,13167.8,-1790.3,-2337.7,-3200.8
-7371.2,-6329.8,20102.3,-5200.5,13171.5,-1805.1,-2343.7,-3204.3
-7378.4,-6340.3,20104.9,-5210.6,13175.7,-1820.8,-2352.3,-3209.1
-7392.8,-6356.3,20113.5,-5223.2,13190.6,-1843.6,-2363.9,-3213.2
-7394.8,-6357.9,20119.8,-5227.7,13198.5,-1854.3,-2376.1,-3216
-7388.1,-6349.5,20119.9,-5222.7,13197.7,-1843.3,-2379.1,-3216.8
-7380.6,-6342.8,20116,-5220.8,13197.5,-1822.8,-2372.8,-3212.3
-7378.7,-6333.3,20106.3,-5213.6,13207.5,-1798.2,-2359,-3198.5
-7374.1,-6321.8,20099.6,-5203.2,13210.5,-1783.5,-2344.3,-3188.9
-7377.7,-6326.9,20097.5,-5208.3,13209,-1792.1,-2340.6,-3191.6
-7379.6,-6333.5,20096.1,-5212.6,13206.1,-1808,-2348.9,-3200.2
-7371.2,-6340.4,20088.4,-5226.5,13182.5,-1835.3,-2371.8,-3230.9
-7367.9,-6345.1,20083.8,-5236.4,13160.7,-1841.4,-2383.9,-3248.8
-7370,-6344.8,20086.2,-5236.3,13157.4,-1840,-2384.6,-3249.1
-7366.6,-6335.5,20088.6,-5226.4,13155.5,-1825.9,-2377.7,-3241.1
-7367.5,-6323.5,20093.8,-5207.3,13155.3,-1800.2,-2357.9,-3224.4
-7361.2,-6315.8,20095.2,-5195.5,13159.4,-1783.6,-2345.7,-3212
-7360.8,-6318.7,20094.5,-5194.9,13160.9,-1781.3,-2338.5,-3208.5
-7363.8,-6323.9,20095.1,-5199.2,13161.6,-1791,-2339.6,-3209.8
-7370.7,-6333.4,20097.3,-5210.4,13159.6,-1810.7,-2349.4,-3217.7
-7380.4,-6343.5,20102.2,-5222.7,13160.1,-1833.5,-2363.4,-3226.9
-7384.1,-6347.5,20106.4,-5228.4,13161.9,-1844,-2375.2,-3231.2
-7376.8,-6345.6,20107.7,-5230.4,13159.4,-1837.8,-2377.4,-3231.7
-7362.7,-6332.9,20104.8,-5228.6,13145.6,-1820.5,-2371.8,-3232.8
-7350.9,-6320.9,20100.2,-5214.8,13140.1,-1793,-2356.7,-3225.4
-7347.2,-6316.8,20097.3,-5205.7,13139.7,-1781.9,-2343.5,-3218.6
-7351.9,-6320.9,20097.5,-5205.7,13141.6,-1787.5,-2339,-3216.3
-7361.3,-6328.7,20101.2,-5210.7,13147.6,-1802.2,-2343.2,-3216.9
-7373.8,-6341.6,20106.2,-5223.7,13152.1,-1828.1,-2355.1,-3224.4
-7383.7,-6350.3,20111.1,-5233.8,13155.7,-1846.5,-2369.5,-3230.6
-7384.2,-6347.8,20113.4,-5232.4,13158.6,-1842.7,-2376.3,-3229.3
-7390.5,-6344.7,20117.9,-5225.2,13172.3,-1832,-2372,-3218.9
-7383.5,-6333.4,20119.8,-5212.5,13181.7,-1816.3,-2364,-3209.2
-7373.4,-6322,20116.6,-5199.9,13182.4,-1796.2,-2352.7,-3204
-7371.9,-6320.9,20114.5,-5195.4,13183.7,-1789.3,-2342.7,-3202.1
-7381,-6330.4,20118.7,-5198.8,13196.1,-1801.6,-2341.4,-3200.8
-7392.2,-6340.4,20123.7,-5209.5,13203.6,-1823.9,-2350.1,-3205.6
-7399.8,-6350.1,20127.4,-5222,13205.5,-1844.4,-2364.5,-3215.1
-7405,-6356.5,20128.8,-5231,13208.6,-1854.7,-2376.6,-3222
-7406.8,-6354.5,20123.7,-5233.1,13221.4,-1844,-2377.5,-3214.5
-7402.1,-6344.1,20119.1,-5225.3,13225.6,-1826.8,-2370.3,-3206.9
-7390.2,-6329,20113.2,-5213,13220.5,-1803.2,-2358.2,-3201.7
-7377.8,-6318.3,20106.2,-5203.6,13213.7,-1786.9,-2345.7,-3201.2
-7359.2,-6314.3,20092.7,-5206.2,13187.1,-1791.3,-2347.2,-3222.4
-7358.4,-6321.5,20085.6,-5215.4,13164.6,-1799.8,-2349,-3237.5
-7372.2,-6337.4,20089.7,-5229.9,13162.8,-1824.3,-2356.5,-3244.5
-7382.3,-6344.1,20096.3,-5239.1,13164,-1840.2,-2365.9,-3246.4
-7391.8,-6344.4,20106.5,-5231.5,13166.8,-1836.6,-2364.3,-3238.7
-7389,-6342.4,20111.4,-5223.2,13172.7,-1827,-2364.9,-3231.7
-7376.9,-6332.5,20110.1,-5211.8,13173.2,-1805.1,-2358.6,-3223.9
-7366.3,-6321.1,20106.4,-5199.4,13171.2,-1783.1,-2345.4,-3216.3
-7362.8,-6318.6,20103,-5195.5,13165.5,-1777.8,-2336.6,-3215.9
-7366.6,-6324.9,20103.2,-5201.1,13162.7,-1789.5,-2337.2,-3218.8
-7378.9,-6333.3,20104.4,-5210.5,13163.8,-1805.6,-2343.2,-3222.3
-7389.6,-6347,20108.4,-5226.7,13164.2,-1833,-2355.8,-3232.2
-7385.1,-6350.8,20110.9,-5238.4,13153.8,-1845.9,-2368.1,-3243.1
-7378,-6351.6,20110.8,-5237.5,13150.9,-1832,-2368.9,-3240.4
-7373.6,-6347.1,20110.7,-5229.3,13151.9,-1818.6,-2363.6,-3233.7
-7361.6,-6330.5,20107.4,-5212,13151.6,-1793.7,-2351.2,-3222
-7358.5,-6323.1,20105.7,-5201.1,13154,-1780.6,-2337.8,-3213.3
-7363.3,-6326.7,20105.8,-5202.7,13155.3,-1788.4,-2332.9,-3213.6
-7369.7,-6333.4,20107.1,-5208.7,13157.2,-1802,-2336,-3217.8
-7383.2,-6345.5,20110.6,-5221,13161.9,-1823.6,-2347.2,-3224.4
-7403.2,-6355.3,20118.3,-5229.9,13178.1,-1841.7,-2358.9,-3223.3
-7406.5,-6356,20124.5,-5231.9,13190.4,-1846.7,-2368.8,-3222.5
-7398.9,-6348.5,20124.5,-5228.8,13192.3,-1833.6,-2369.5,-3222.2
-7387.8,-6334.9,20121.8,-5218.6,13192,-1811.1,-2360.4,-3216.5
-7382,-6326.8,20121.4,-5206.9,13200.3,-1788.7,-2343.4,-3205.1
-7382.8,-6323.4,20120.9,-5202.6,13204.5,-1784.4,-2334,-3200.4
-7386,-6327.5,20120.4,-5207.3,13203.3,-1795.7,-2336.6,-3204.4
-7394.1,-6338.9,20120.1,-5222.8,13205.4,-1813.7,-2345.5,-3210.8
-7418,-6354.1,20117.6,-5239.4,13220.5,-1836.1,-2359.3,-3212.5
-7421,-6353.3,20117.1,-5237.1,13226.7,-1840.8,-2367.4,-3213.9
-7419.1,-6352.2,20116.1,-5234.6,13225,-1839.5,-2372.2,-3218.9
-7403.7,-6338.2,20110.7,-5221.3,13218.2,-1819.7,-2369.3,-3219.7
-7371,-6320.5,20094.2,-5208.4,13188.5,-1797.8,-2365.2,-3234.2
-7354.1,-6315.5,20081.2,-5199.1,13162,-1774.4,-2348.5,-3238.3
-7359.1,-6324.8,20079.7,-5198.8,13157,-1779.6,-2335.7,-3236.1
-7370.6,-6333.2,20083,-5201.4,13156.7,-1794.7,-2333.4,-3234.8
-7392.7,-6343.5,20093.8,-5204.3,13160.4,-1813.5,-2335.9,-3233.2
-7403.8,-6354.1,20102.5,-5213.3,13169.4,-1836.3,-2352.1,-3235.7
-7401.5,-6353.5,20105.7,-5216.5,13173,-1837.4,-2363.6,-3237
-7392.8,-6344.5,20105.1,-5213.3,13172.3,-1822.3,-2364.4,-3234.6
-7379.8,-6331.4,20100.9,-5206.5,13165,-1802.2,-2357.4,-3231.6
-7367.4,-6321.1,20096.7,-5197.6,13159.1,-1780,-2343.7,-3225.3
-7365.4,-6318.7,20094,-5193.6,13157.3,-1772.3,-2331.6,-3220.4
-7372,-6325.2,20093.9,-5201.5,13154.8,-1787.7,-2330.2,-3224
-7372.5,-6332.1,20093.3,-5216.3,13142.9,-1803.9,-2335.9,-3234
-7383.2,-6343.7,20095.8,-5227.7,13141,-1824,-2348.9,-3241.9
-7390.1,-6348.6,20099.6,-5236,13144.2,-1838.7,-2362.5,-3245.5
-7385.4,-6344.5,20101.1,-5235.7,13146.6,-1829.5,-2365.7,-3241.5
-7380,-6336.4,20101.5,-5228.1,13149.9,-1813.3,-2360.6,-3233.8
-7369.9,-6325,20099.2,-5217.1,13149.7,-1793.2,-2349,-3225.7
-7360.3,-6318.6,20096.1,-5206.1,13148.9,-1778,-2335.2,-3219.4
-7363.8,-6324.6,20094.9,-5204.3,13150.3,-1778.4,-2328.2,-3216.6
-7385.3,-6332.3,20099,-5208,13165,-1792.8,-2328.2,-3212.2
-7401,-6343.4,20105.3,-5219.1,13178.5,-1818.8,-2339.1,-3217
-7407.2,-6353.7,20108.9,-5233.6,13183.1,-1838.5,-2354.9,-3226.7
-7404.6,-6353.9,20110.5,-5233.4,13185.3,-1838.3,-2363.2,-3229.3
-7405,-6351.7,20114.1,-5225.9,13196.1,-1827.5,-2359.8,-3223.8
-7399,-6343,20115.1,-5216.6,13200.4,-1814.5,-2354.5,-3217.5
-7383.5,-6327.5,20110.3,-5203.4,13195.8,-1788,-2343.1,-3209.9
-7381.9,-6323.9,20104.7,-5198.2,13194.5,-1776.1,-2330.8,-3206.3
-7395.3,-6330,20098.8,-5202.6,13207.7,-1789.1,-2330.5,-3202.3
-7407.3,-6340.8,20098.8,-5211.8,13215.6,-1813.6,-2338.3,-3205.8
-7411.6,-6349.1,20100.2,-5221.2,13215.6,-1834.6,-2352.6,-3214.8
-7411.9,-6353.1,20100,-5227.4,13212.7,-1846,-2365.5,-3225.7
-7388.6,-6343.6,20090.5,-5230.5,13187.3,-1849.2,-2381.8,-3249.6
-7369.9,-6331.6,20081.7,-5224.6,13162.9,-1825.7,-2377.6,-3256.8
-7357.7,-6322.2,20077.8,-5208.4,13155.9,-1797.3,-2358.8,-3246.3
-7355.2,-6319.3,20077.5,-5194.9,13153.2,-1784.4,-2341,-3236.6
-7368.4,-6321,20084,-5184.5,13154,-1785.2,-2327.1,-3227.8
-7376.5,-6326.1,20090.8,-5187.5,13161.2,-1803.9,-2332.8,-3226.8
-7382.4,-6334.3,20094.7,-5198.8,13165.1,-1822.1,-2345.2,-3231.5
-7389.8,-6342.4,20099.5,-5212.1,13168,-1842.1,-2359.4,-3238.7
-7386.8,-6338.8,20102,-5217.9,13164.4,-1849.8,-2373.1,-3245.7
-7378.9,-6326.7,20103,-5213.4,13160.9,-1840.3,-2375.2,-3245.9
-7369.9,-6311,20102.4,-5201,13160.2,-1824.1,-2368.7,-3241.3
-7358.7,-6302.7,20100,-5195.4,13156.1,-1805.2,-2357.1,-3235.9
-7346.7,-6298.9,20097,-5200.3,13142.7,-1794.8,-2345.4,-3237.4
-7351.3,-6302.9,20097.3,-5200.9,13140.3,-1801.6,-2342.2,-3238.8
-7361.6,-6316.7,20102,-5208.2,13144.8,-1823.7,-2349.2,-3243
-7371.3,-6328.6,20108.6,-5214.2,13150.5,-1846.1,-2363.2,-3247.9
-7378.5,-6337.2,20115.9,-5218.4,13157.3,-1862.7,-2377.5,-3252.2
-7374.2,-6331.4,20119.4,-5221.7,13159.8,-1860,-2383.8,-3252.3
-7364.8,-6316.6,20121,-5218.5,13160.1,-1849.6,-2383.8,-3250.7
-7352.8,-6296.3,20120,-5203.5,13160.7,-1825.1,-2374.9,-3242.2
-7357.5,-6285.7,20122.4,-5194.3,13173.1,-1811.1,-2361.7,-3229.1
-7366.8,-6289,20126.4,-5194,13184.3,-1820.7,-2359.4,-3226.2
-7371.3,-6292.7,20127,-5192.6,13187.3,-1828.5,-2362.9,-3228.9
-7381.6,-6302.5,20130.5,-5201.6,13191.8,-1846.2,-2369.6,-3236
-7394.2,-6313.1,20141,-5213.1,13206.9,-1873.3,-2381.2,-3241.5
-7396.3,-6310.2,20148.3,-5215.8,13215,-1886.8,-2392.8,-3245.7
-7387.7,-6295.3,20149.4,-5212.4,13214.5,-1880.7,-2398.5,-3248.3
-7377.3,-6282.7,20146.7,-5205,13214,-1862,-2394.5,-3245.5
-7373.2,-6272.9,20140.3,-5196.7,13225.5,-1843.6,-2385.6,-3233.9
-7370.2,-6261.6,20136.6,-5184.6,13230.4,-1831,-2374.7,-3226
-7374.9,-6264.1,20137.6,-5184.6,13229.6,-1844,-2375.7,-3231.1
-7375.7,-6267.3,20139.3,-5190.1,13228,-1861,-2384.1,-3240.6
-7364.5,-6274.5,20133.3,-5209,13205.4,-1885.5,-2404.2,-3270.1
-7360,-6279.6,20131.8,-5219.1,13185.4,-1894.9,-2415.8,-3287.7
-7361,-6273.9,20137,-5217.3,13182.7,-1896,-2418.5,-3287.6
-7360.6,-6259.9,20142.5,-5208.5,13181,-1886.7,-2414.3,-3280.6
-7361.9,-6240.1,20149.6,-5191.1,13181.1,-1860.3,-2396.1,-3263.5
-7356.2,-6233.5,20151.3,-5182.7,13186,-1842.5,-2383.2,-3251.5
-7357.3,-6235.1,20150.7,-5177.5,13188.2,-1839.3,-2377,-3248.4
-7362.9,-6242.2,20152.8,-5177.7,13190.1,-1851,-2380.1,-3250.1
-7365.5,-6250.7,20156.1,-5185.6,13187.5,-1870,-2390.3,-3259.1
-7374.5,-6261,20163.3,-5198.7,13188,-1896.8,-2406.2,-3271
-7377.3,-6255.2,20170.5,-5201.4,13191,-1910.8,-2421,-3276.9
-7371.1,-6244.3,20174.6,-5202.7,13189.6,-1904.7,-2425.4,-3278.1
-7353,-6234.4,20175.2,-5203.7,13177.2,-1885.4,-2420,-3278.9
-7343.3,-6222,20174.3,-5186.2,13173.1,-1861.4,-2406.7,-3272.5
-7342.3,-6216.9,20175.3,-5174.8,13174.4,-1853.5,-2396.5,-3266.9
-7347.9,-6221.3,20178.4,-5173.7,13178.3,-1860.4,-2394.5,-3264.9
-7358.6,-6230.8,20184.3,-5176.2,13185.5,-1876.6,-2400,-3266.2
-7372,-6248.9,20191.3,-5186.4,13191.8,-1900,-2411.9,-3273
-7377.7,-6260.5,20197.1,-5197.6,13196.1,-1912.6,-2424.7,-3277.3
-7375.7,-6257.5,20200.7,-5202.9,13200.4,-1907.1,-2429.8,-3276.2
-7380.7,-6249.4,20207.5,-5197.7,13215.5,-1897.1,-2424.9,-3266.6
-7373.5,-6233.1,20212.4,-5184.7,13226,-1884.6,-2419.6,-3257.3
-7362.5,-6218.4,20212.1,-5173.7,13227.5,-1866.6,-2410.9,-3252.5
-7361.8,-6215.9,20212.8,-5170.5,13229.7,-1863.7,-2405,-3251.3
-7370.9,-6226.2,20218.2,-5173.2,13242,-1874.7,-2404.6,-3250
-7380.4,-6241,20223.8,-5183.5,13250.1,-1891.7,-2411.4,-3253.5
-7391.9,-6253.1,20228.5,-5196.2,13252.2,-1910,-2424.6,-3262.1
-7397,-6260.6,20231.1,-5206.4,13254.9,-1917.3,-2436.1,-3267.1
-7398.7,-6261.2,20227.3,-5206.9,13267.4,-1903.8,-2437,-3259.5
-7390.1,-6246.2,20223.1,-5192.8,13270.8,-1881.9,-2428.3,-3251.4
-7380.6,-6230.3,20218.3,-5180.5,13266.6,-1859.1,-2413.9,-3246.5
-7369.2,-6220.1,20212.1,-5169.4,13260.2,-1844.3,-2401.8,-3245.6
-7356.6,-6220.1,20201.1,-5175.2,13234.4,-1858.9,-2407.2,-3269.9
-7351.4,-6226,20195.9,-5184,13212.2,-1864.4,-2409.4,-3283.9
-7363.6,-6241.2,20201.5,-5195.2,13211.1,-1884.9,-2413.5,-3288.7
-7375.8,-6249.2,20210.1,-5201.8,13213.1,-1903.8,-2422.5,-3290.9
-7386,-6246.3,20221.4,-5196.1,13215.5,-1900.7,-2422,-3282.6
-7383.4,-6240.2,20227.1,-5191,13221.2,-1890,-2422.5,-3274.8
-7370.9,-6226.9,20226.5,-5179,13221.6,-1865.7,-2413.8,-3265.9
-7358.6,-6217.1,20223.4,-5166.6,13218.8,-1840.9,-2398.3,-3256.5
-7354.9,-6219,20220.6,-5164.5,13212.8,-1835.4,-2388.3,-3256.7
-7360.3,-6230.9,20221.1,-5170.2,13210.8,-1847.2,-2387.3,-3259.7
-7368.7,-6243.6,20223.5,-5178.3,13212.7,-1864.1,-2392.6,-3263.1
-7379.6,-6259.4,20228,-5195.3,13212.5,-1889.3,-2405.6,-3272.6
-7375.2,-6262.8,20230,-5207.8,13201.2,-1898.1,-2417.4,-3282.2
-7370.4,-6256.7,20229.7,-5204.3,13198,-1885.9,-2418.2,-3280.4
-7365.7,-6250.4,20228.8,-5197.8,13197.9,-1871.9,-2412.8,-3274.2
-7354.5,-6236.9,20224.6,-5185.2,13196.3,-1843.5,-2397.5,-3261.8
-7352.8,-6231.9,20222.1,-5175.5,13197.9,-1828.2,-2381.8,-3253.2
-7357.1,-6237.2,20221.7,-5174.7,13198.7,-1835.9,-2377.4,-3252.1
-7363.1,-6244.6,20222.2,-5176.8,13199.4,-1848.8,-2381,-3254.5
-7373.7,-6253.8,20225.7,-5184.8,13203.8,-1870.8,-2391.8,-3260.6
-7388.3,-6268.8,20235.7,-5198.8,13221.1,-1893.5,-2403.7,-3259.4
-7389.4,-6269,20242.4,-5198.7,13233.4,-1896.5,-2412.6,-3255.2
-7387.7,-6262.7,20241.5,-5191.7,13235.2,-1881.3,-2413,-3252.9
-7375.7,-6253.3,20238.6,-5179.5,13234.9,-1854.7,-2402,-3244.2
-7369.3,-6246.7,20238.5,-5170.2,13244,-1834.4,-2385.6,-3231.3
-7365.8,-6242.6,20238.3,-5167.3,13247.7,-1830.3,-2374.7,-3225.7
-7371,-6248,20237.2,-5172.7,13245.9,-1842.7,-2375.8,-3229.2
-7381.8,-6260.4,20236.1,-5184.6,13247.5,-1859.2,-2383.7,-3235.1
-7400.5,-6276.7,20233.8,-5200.6,13262.2,-1881.2,-2397,-3237.5
-7405,-6280.9,20233.6,-5204.2,13268.7,-1890.8,-2408,-3239.5
-7398.5,-6273.8,20231.6,-5200.5,13265.2,-1880.3,-2411.1,-3239.7
-7384,-6260.6,20226.5,-5192.5,13258.4,-1862.5,-2406.5,-3239.7
-7351,-6242.1,20210.2,-5186.1,13228.9,-1842.7,-2402.3,-3253.9
-7333.4,-6230.3,20196.4,-5177.7,13201.6,-1814.2,-2384.2,-3257.1
-7340.7,-6241.3,20194.6,-5179.3,13196,-1818.8,-2372.1,-3254.8
-7351.7,-6254.7,20197.3,-5181.6,13195.1,-1832.8,-2370.8,-3252.3
-7373.6,-6270.4,20207,-5183,13197.6,-1849.1,-2370.4,-3248
-7383.7,-6284.1,20215,-5189.8,13205.3,-1869.9,-2383.9,-3249.3
-7380,-6282.8,20217.4,-5190.7,13207.4,-1872.8,-2394.2,-3250.4
-7371.4,-6274.8,20216.6,-5186.1,13206.1,-1858.7,-2392.6,-3247.1
-7356.3,-6263,20212.7,-5179.6,13198.7,-1837.5,-2383.9,-3242.4
-7346.8,-6252.4,20207.1,-5168.1,13192.5,-1814.1,-2367.9,-3234.7
-7344.6,-6252.8,20203.4,-5163.2,13190.6,-1807.2,-2355.4,-3229.8
-7347.3,-6259.8,20203.4,-5171.4,13187.7,-1821.9,-2355.1,-3233.6
-7345.3,-6266.7,20203.9,-5186.1,13175.8,-1839.4,-2362.5,-3244.9
-7354.8,-6280.8,20206.5,-5197.3,13174.4,-1860.1,-2374.8,-3253.1
-7362.5,-6289.4,20209.2,-5203,13177,-1871.9,-2386.6,-3256
-7357.3,-6285.4,20209.4,-5196.6,13178,-1861.7,-2388.7,-3251.7
-7350.8,-6279,20208.9,-5186.5,13180.5,-1849,-2383.5,-3244.6
-7344,-6265.9,20205.1,-5173.2,13179.1,-1828.6,-2372,-3236
-7338.6,-6257,20199.6,-5162.7,13176.5,-1808.4,-2356.4,-3228.9
-7342.6,-6261.1,20197,-5164.4,13177.9,-1810.6,-2347.6,-3227.3
-7360.2,-6269.7,20200.8,-5169.7,13192.2,-1824.9,-2347.1,-3222
-7375.3,-6283,20206.6,-5181.1,13204.5,-1850.5,-2357.9,-3224.8
-7382.8,-6292.3,20209.6,-5190.4,13208.3,-1870.7,-2374.8,-3234.5
-7377.4,-6291.5,20209.3,-5189.8,13210.1,-1867.1,-2384.5,-3236.6
-7373.8,-6294.3,20211.1,-5184.1,13219.9,-1851.8,-2380.8,-3229.1
-7365.6,-6291,20209.6,-5173,13222.6,-1836.2,-2373.8,-3220.8
-7354.2,-6281.2,20203.2,-5160.6,13217.5,-1811.2,-2361.2,-3213.7
-7352.6,-6275.5,20196.1,-5157.2,13215.3,-1800,-2350,-3209.8
-7365.8,-6280.7,20188.4,-5165.3,13227.5,-1809.5,-2347.4,-3205.3
-7374.9,-6284.2,20185.8,-5173,13233.2,-1825.7,-2351.7,-3207.3
-7385.1,-6291.8,20185.7,-5186.5,13232.5,-1849.1,-2365.3,-3216.7
-7385.6,-6292.9,20184.2,-5194.6,13229.1,-1861.7,-2380.4,-3226.7
-7361.1,-6282.1,20171.9,-5200.3,13201.6,-1858.5,-2393.2,-3248.4
-7343.2,-6271.6,20160.8,-5201,13175.5,-1831.4,-2385.6,-3255.1
-7333.5,-6265,20155.8,-5187.4,13167.7,-1804,-2367,-3244.4
-7330.1,-6259.1,20152.3,-5169.3,13162.9,-1783.8,-2346.6,-3231.4
-7343.8,-6265.2,20156.9,-5159.4,13162.5,-1785.6,-2331.1,-3221.2
-7352.1,-6275.7,20160.8,-5161.9,13168.5,-1801.4,-2334.4,-3218.7
-7362.5,-6289.4,20163.6,-5170.8,13172.3,-1824.2,-2347,-3224
-7370.2,-6296.8,20166,-5181.3,13173.5,-1843.8,-2362.5,-3230.7
-7366.1,-6292,20165.7,-5184.4,13168.9,-1844.2,-2372.4,-3235
-7360.8,-6286.7,20163.7,-5181.5,13165,-1831.4,-2370.6,-3234.2
-7352.1,-6276.3,20160.7,-5172.2,13163.1,-1812.5,-2361.6,-3226.8
-7343.4,-6266.2,20155.5,-5163.6,13157.8,-1794.4,-2348.7,-3220.2
-7332.5,-6263,20149.6,-5161.8,13142.9,-1786.5,-2338.1,-3221.2
-7337.1,-6271.4,20147.3,-5163.2,13139,-1793.2,-2334.5,-3222.7
-7346.1,-6284.1,20147.8,-5173.3,13141,-1809.5,-2339,-3225.5
-7355.7,-6297.6,20151.2,-5187.4,13145.5,-1827.4,-2349.1,-3229.5
-7361.9,-6306.8,20156.4,-5194.1,13152.1,-1843.4,-2361.6,-3231.7
-7358.4,-6303.5,20157.9,-5192.5,13154.2,-1842.2,-2367.1,-3231.2
-7351.1,-6292.5,20156.4,-5185.5,13153.5,-1828,-2363.1,-3226.7
-7344.3,-6277.3,20152.9,-5175.1,13153.3,-1805.4,-2351.1,-3217.6
-7348.5,-6271.8,20152.9,-5164,13165.3,-1787.6,-2334.3,-3202.8
-7355.2,-6274.9,20154.7,-5161,13175.5,-1792.2,-2328.2,-3197.5
-7361,-6280.4,20154.4,-5165,13178.3,-1805.2,-2333.1,-3201.4
-7369.4,-6289.8,20155.7,-5173.7,13181.7,-1822.5,-2342.5,-3209.1
-7382.3,-6304.1,20163.1,-5185.9,13195.7,-1844.7,-2355.1,-3214.5
-7383.6,-6303.8,20167.9,-5189.3,13202.7,-1853.6,-2368.1,-3216.9
-7375.6,-6297,20166.2,-5184.3,13200.9,-1839.4,-2370.7,-3216.5
-7369,-6290.5,20160.3,-5179.1,13199.5,-1819.6,-2364.2,-3213.2
-7365.4,-6282.4,20148.8,-5171.7,13208.5,-1796.9,-2351,-3201.1
-7361,-6275.8,20140.2,-5160.4,13210.3,-1781.1,-2335.9,-3193.5
-7363.4,-6278.7,20135.7,-5160.7,13207.1,-1789,-2332,-3196.9
-7366.8,-6287.1,20131.8,-5171.1,13202.7,-1805.5,-2337.2,-3207.6
-7355.5,-6292.1,20121.7,-5185.2,13177.4,-1829.8,-2357.2,-3236.1
-7352.5,-6299.9,20116,-5194.2,13154.6,-1837.9,-2368.7,-3253.1
-7351.4,-6302.2,20116.5,-5192.4,13149.9,-1834.8,-2369.1,-3251.8
-7347.9,-6296.3,20116.8,-5181.1,13146.6,-1820.3,-2361.5,-3243.7
-7344.8,-6281.2,20118.6,-5156.4,13144,-1788.7,-2339.4,-3225
-7342.5,-6277.6,20117.6,-5145,13147.2,-1774.2,-2324.1,-3213.2
-7344.5,-6281.6,20116,-5146,13148.5,-1778.5,-2319.9,-3211.1
-7346.1,-6284.7,20114.4,-5149.8,13147.9,-1786.7,-2322,-3211.6
-7351.4,-6295,20114.8,-5161.6,13144.4,-1806.1,-2331.5,-3219.4
-7360.1,-6306.3,20117.8,-5176.1,13143.2,-1828.6,-2347.1,-3228.1
-7362.5,-6309.5,20119.7,-5182.7,13143.7,-1837.1,-2359.1,-3231.8
-7353.7,-6304.7,20117.6,-5179.8,13139.1,-1823.3,-2359.8,-3229.8
-7338.5,-6297.2,20112.6,-5177.2,13124,-1804.3,-2353,-3228.9
-7327.5,-6287.4,20106.6,-5164.5,13117.5,-1778.6,-2339.8,-3220
-7325.5,-6283,20101.7,-5157.5,13116.2,-1767.7,-2328.2,-3212.7
-7331,-6286,20099.3,-5158.6,13117.2,-1771.6,-2323.2,-3209.3
-7340.3,-6295.9,20101.3,-5165.9,13122,-1790.5,-2327.5,-3210.5
-7352.6,-6309.4,20104.5,-5179.3,13125.5,-1815.6,-2339.8,-3218
-7359.8,-6316.8,20107.2,-5187.4,13127.7,-1830.1,-2353.4,-3223.6
-7358.2,-6313.5,20107.5,-5184.5,13130.1,-1824.2,-2358,-3220.8
-7363.8,-6309.9,20110.6,-5177.1,13144.2,-1813.4,-2353.4,-3208.6
-7358.2,-6299.5,20110.8,-5165.1,13153.3,-1797.5,-2347,-3197
-7348.2,-6289.6,20105.7,-5153.9,13153.3,-1776.2,-2335.1,-3189.3
-7348.2,-6291.2,20101.8,-5152,13154,-1771.7,-2325.7,-3187.4
-7358.2,-6302.8,20104.3,-5156.7,13165.3,-1785.6,-2325.1,-3186.6
-7368.4,-6314.2,20107.7,-5167,13172.4,-1807.5,-2333.8,-3190.7
-7376,-6323.9,20110.3,-5179.8,13173.4,-1828.2,-2347.5,-3199.7
-7380.6,-6327.5,20110.1,-5189.2,13175.2,-1836.3,-2359,-3205.3
-7383.5,-6324.5,20103.6,-5190.5,13186.9,-1825.3,-2360.7,-3198
-7375.8,-6313.4,20097.9,-5181.1,13190.1,-1806.8,-2354.1,-3189.7
-7363,-6300.8,20091.3,-5169.2,13184.9,-1784.7,-2342.1,-3183.5
-7352.7,-6294,20083.3,-5160.5,13177.5,-1771.1,-2331.1,-3183
-7336,-6293.4,20068.3,-5165.8,13149.6,-1781.6,-2335.6,-3205.9
-7332.4,-6299.3,20058.8,-5174.4,13125.3,-1787.6,-2336.9,-3220.8
-7344.2,-6313,20060.1,-5185.8,13122.3,-1806.9,-2341.1,-3225.7
-7354.3,-6320.4,20065.6,-5191.2,13123,-1823,-2349.5,-3226.8
-7365,-6319.3,20074.6,-5183.3,13125.3,-1819.3,-2346.8,-3218.8
-7361.7,-6316.3,20078.7,-5177.5,13130.9,-1813.8,-2348.5,-3211.7
-7349.1,-6301.6,20074.7,-5163.4,13130,-1788.7,-2339.6,-3202.7
-7338.7,-6292.4,20068.8,-5150.7,13126.6,-1766.6,-2323.4,-3194.9
-7332.4,-6293.3,20064.3,-5150.1,13119.5,-1766,-2316.5,-3196.4
-7338.2,-6298.3,20062.2,-5157.3,13115.5,-1776.2,-2317.4,-3201
-7349.3,-6308.4,20062.7,-5165.7,13116.3,-1794,-2324.7,-3206.6
-7357.5,-6323.7,20065.4,-5183.2,13115.5,-1820.6,-2339.1,-3217
-7352,-6325.5,20065.9,-5191.8,13104,-1830.6,-2352,-3227.4
-7347.6,-6320.6,20064.2,-5185.6,13100.3,-1818.2,-2353.3,-3226.5
-7341.8,-6313.6,20061.5,-5176.4,13099.8,-1803.7,-2347.6,-3221
-7330.6,-6301,20056.6,-5160.5,13098.2,-1777.7,-2333.7,-3210.1
-7327.8,-6297.6,20053.5,-5150.3,13100.1,-1764.5,-2319.8,-3200.5
-7331.7,-6303.9,20052.6,-5152.6,13101.7,-1773.2,-2315.6,-3199.9
-7338.8,-6311.3,20053.4,-5159.7,13103.2,-1789,-2320,-3203.4
-7353.9,-6322.8,20056.3,-5172.6,13107.7,-1811.2,-2331.1,-3209
-7371.3,-6335,20064.7,-5184.9,13123.9,-1832.2,-2344,-3208
-7374,-6334.2,20069.8,-5185.4,13135.7,-1833.6,-2352.9,-3205.1
-7367.8,-6329.9,20068.1,-5180.1,13137.6,-1815.4,-2350.8,-3202.1
-7357.4,-6319.5,20064.3,-5169.7,13137.7,-1793,-2341.4,-3196.5
-7351.7,-6309.9,20063.3,-5157.2,13146.3,-1772.4,-2326.2,-3184.6
-7353.5,-6307.8,20062.6,-5155.9,13150.7,-1769,-2316.5,-3179.4
-7358,-6312,20061.3,-5162.7,13150,-1780.6,-2318.2,-3183
-7369.7,-6324.7,20060.4,-5176.8,13152.2,-1801.5,-2326.9,-3190.5
-7387,-6339,20057.9,-5193.3,13167.5,-1822.9,-2340.5,-3192.3
-7390.1,-6341,20057.1,-5197.4,13174.1,-1829.3,-2350.8,-3193.6
-7382.6,-6335.6,20056,-5194.7,13172.1,-1823.4,-2355.2,-3195.1
-7367.7,-6324.5,20050.5,-5184.9,13165.7,-1804.3,-2350.7,-3195
-7338.2,-6307.3,20033.6,-5176,13136.2,-1786.2,-2349.1,-3209.4
-7323.2,-6297.4,20019.6,-5168.3,13109.3,-1758.4,-2332.6,-3213.6
-7331.3,-6304.2,20017.9,-5173,13105.1,-1765.7,-2322.1,-3212.8
-7342.7,-6309.8,20020.7,-5175.3,13104.8,-1780.4,-2321.9,-3210.5
-7364.2,-6325.3,20031.3,-5178,13107.9,-1800.6,-2324.5,-3208
-7373.7,-6339.6,20039.2,-5187.9,13116.2,-1821.7,-2339.7,-3209.2
-7374,-6338.3,20041.6,-5187.6,13119.8,-1822.8,-2349.8,-3209.3
-7366.1,-6329.5,20040.7,-5181.2,13119,-1809.5,-2349.5,-3205.9
-7350.9,-6317,20036.9,-5171.2,13111.6,-1790.4,-2343,-3202.5
-7338.7,-6307.5,20031.6,-5159.8,13105.6,-1766.1,-2328.6,-3195.5
-7338.5,-6308.7,20028,-5156.3,13103.9,-1760.4,-2317.8,-3191.5
-7344.1,-6316,20027.1,-5164.8,13101.1,-1776,-2317.3,-3195.5
-7345.6,-6324.9,20027.1,-5180.2,13089.7,-1795.1,-2324.4,-3206.6
-7356.6,-6338.3,20029.3,-5190.9,13088.5,-1814.3,-2336.5,-3214.1
-7362.1,-6344.9,20032.7,-5197.8,13091.1,-1828,-2350.1,-3218.1
-7356.5,-6337.8,20034.7,-5193.6,13093.7,-1820.9,-2354.4,-3214.4
-7350.2,-6328.7,20035.2,-5183.8,13097.4,-1806.1,-2350.5,-3206.7
-7340.9,-6317.7,20032.4,-5172.3,13097.1,-1787.8,-2340.7,-3199
-7334.1,-6311.4,20028.2,-5164.4,13095.2,-1770.7,-2327.3,-3192.3
-7339,-6314.4,20026.6,-5166,13097.1,-1772.2,-2320.6,-3190.2
-7359,-6323.5,20032,-5173,13113,-1789.8,-2321,-3186.2
-7377.4,-6335.6,20038.8,-5185.2,13127.1,-1814.9,-2332.1,-3189.5
-7384.9,-6344.7,20043.2,-5196.9,13132.9,-1835.7,-2348.8,-3198.7
-7382.9,-6341.5,20045,-5195.9,13136,-1834.6,-2356.6,-3200.7
-7381.8,-6339.7,20048.5,-5192.2,13147.8,-1823.7,-2353,-3194.1
-7372.4,-6332.3,20048.8,-5187.1,13152.1,-1806.7,-2345.4,-3186.7
-7359.6,-6318.4,20044,-5175.4,13147.8,-1781.8,-2332.8,-3180.3
-7361.9,-6319.8,20039.5,-5173.3,13148,-1774.5,-2321.1,-3178.6
-7373.3,-6326.8,20034.2,-5178.7,13162.4,-1785.8,-2319.4,-3175.7
-7384.3,-6335.9,20033,-5185.3,13169.9,-1803.2,-2324.1,-3179.7
-7393.9,-6347.2,20035.7,-5197.8,13170.9,-1830.3,-2340.2,-3191.9
-7391.6,-6349.8,20035.3,-5203,13168.1,-1839.4,-2353.5,-3202.2
-7368.4,-6341,20024.7,-5204.3,13142.3,-1837.5,-2365.9,-3224.3
-7349.9,-6331.4,20015.5,-5198.4,13117.8,-1812,-2358.3,-3231.1
-7341.3,-6320.8,20011.7,-5185.2,13111.4,-1786.1,-2338.9,-3221.3
-7340.8,-6316.3,20010.3,-5174.7,13108.7,-1771.5,-2320,-3210.6
-7356.6,-6320.6,20017.4,-5168.1,13110.6,-1774.4,-2306.3,-3202
-7365.3,-6328.6,20023.6,-5172.9,13118.6,-1790.3,-2310.3,-3200.6
-7374.6,-6340.3,20027.9,-5188.7,13124.1,-1809.5,-2321.8,-3206.8
-7381.3,-6348.2,20032.3,-5199.1,13127,-1828.5,-2337.3,-3213.7
-7378,-6347.3,20034.4,-5200.6,13124.1,-1833.2,-2349.9,-3219.4
-7370,-6341.1,20033.6,-5194,13120.5,-1817,-2349.8,-3216.8
-7363.1,-6334.4,20031.7,-5184.3,13119.1,-1798.8,-2341.9,-3210.3
-7352.7,-6325.7,20028.5,-5175.8,13114.7,-1780.9,-2329.3,-3204.8
-7342.5,-6320.7,20025,-5176.3,13101.4,-1773.4,-2318.8,-3206.6
-7347.9,-6326.7,20024.6,-5178.5,13099.7,-1782.1,-2317.3,-3208.6
-7359.7,-6336.2,20027.3,-5185.1,13102.8,-1803.2,-2325.2,-3213.5
-7371.9,-6345.8,20032.6,-5193.7,13108,-1828,-2339.6,-3220.5
-7378.6,-6351.8,20038.6,-5200.3,13114.7,-1842.1,-2352.3,-3222.9
-7374.6,-6348.3,20041.6,-5201.3,13118,-1835.9,-2355,-3221.8
-7368.5,-6341.8,20041.7,-5195.1,13118.2,-1823.2,-2352,-3219.2
-7360,-6331,20039.7,-5184.2,13118.7,-1802.7,-2342.5,-3211
-7362.9,-6322.7,20040.8,-5173.2,13130.8,-1785.1,-2326.8,-3196.7
-7368.3,-6324.8,20043.8,-5172.1,13141.5,-1788.4,-2320,-3191.9
-7371.5,-6329.4,20044.2,-5176.7,13144.9,-1799.6,-2322.8,-3195
-7383.6,-6344.1,20047.4,-5190.2,13150.4,-1819.7,-2331.5,-3203.1
-7397.3,-6356.7,20056,-5201.5,13165.6,-1842.8,-2346.3,-3206.7
-7398.9,-6355.3,20061.6,-5205.2,13173.2,-1848.5,-2357.3,-3207.7
-7393.4,-6350.4,20062.4,-5205,13172.4,-1838.7,-2359,-3208.7
-7382.6,-6339.1,20058.5,-5197.7,13172.1,-1816.1,-2351.3,-3203.5
-7381,-6331.2,20049.6,-5191.3,13183.5,-1793.6,-2335.6,-3190.8
-7380.3,-6327,20044.6,-5185,13188.1,-1787,-2324.8,-3184.3
-7381.5,-6331.7,20042.9,-5187.6,13186.9,-1795.6,-2324.8,-3187.5
-7385.1,-6338.5,20041.5,-5194.9,13184.2,-1811.2,-2332.8,-3196.8
-7376,-6344.7,20033.6,-5214.5,13160.8,-1836.6,-2353.9,-3226.1
-7370.5,-6348.5,20029.2,-5226.7,13139.4,-1841.5,-2365.2,-3242.3
-7369.3,-6348,20030.5,-5223.4,13135.7,-1835.9,-2364.9,-3240.2
-7364.6,-6341,20032.9,-5211.2,13134.2,-1819.7,-2355.9,-3231
-7366.5,-6330.4,20038.3,-5189.7,13133.9,-1794.2,-2335.7,-3214.4
-7362.5,-6324.7,20040.7,-5177.5,13139.4,-1784.3,-2324.9,-3203.6
-7361.9,-6326.4,20040.5,-5176.5,13142.2,-1784.8,-2320,-3200.7
-7367.4,-6334.5,20041.9,-5184.9,13143.9,-1798.4,-2324.1,-3204.3
-7373,-6344.1,20044.9,-5197.5,13142.3,-1818.1,-2335.3,-3213
-7381.1,-6355,20050.2,-5210.3,13143.4,-1839.7,-2349.8,-3221.7
-7381.8,-6356.6,20054.3,-5213.3,13145.7,-1844.7,-2360.4,-3223.7
-7377,-6353.2,20055.5,-5213,13143,-1837.2,-2362.8,-3224.1
-7358.3,-6341.7,20052.7,-5209.2,13129.1,-1815.6,-2356.4,-3223.3
-7348.3,-6334.4,20049.1,-5198.4,13124.1,-1792.4,-2342.5,-3216.2
-7345.6,-6332.1,20046.6,-5190.2,13123.9,-1783.1,-2330.7,-3209.7
-7350.4,-6337.1,20047.5,-5190.7,13127.6,-1790.9,-2327.3,-3208
-7361.4,-6345.9,20052,-5196.7,13135,-1809,-2332,-3209.4
-7375.1,-6358.2,20058.1,-5211.9,13140.2,-1838.4,-2346.3,-3217.7
-7378.7,-6361.9,20062.7,-5220.1,13143.2,-1851.7,-2360.1,-3222.6
-7379.3,-6358.9,20066.1,-5220,13146.9,-1848.3,-2365.9,-3221.4
-7384.2,-6351.4,20070.4,-5211.5,13159.9,-1834.6,-2361.3,-3210.2
-7378.8,-6339.8,20072.4,-5198.9,13169.5,-1818.1,-2353,-3200
-7369.6,-6330.3,20069.3,-5188.7,13170.4,-1800.1,-2343.3,-3194.8
-7366.8,-6330.3,20067.4,-5186.6,13171.8,-1795.3,-2336.8,-3193.6
-7375.5,-6340.1,20072,-5191.3,13183.8,-1807.4,-2336.2,-3193.4
-7386.1,-6350.3,20077.4,-5204.5,13191.4,-1830.1,-2344.9,-3199.9
-7393.9,-6358.1,20081.4,-5217.1,13192.1,-1849.8,-2359.2,-3210.4
-7398.5,-6362.1,20082.7,-5222,13194.6,-1856.5,-2371,-3216.1
-7402.2,-6361.7,20077.6,-5222.3,13207.2,-1847.2,-2373,-3209.4
-7392.4,-6345.9,20071.7,-5207.6,13210,-1823.6,-2364.3,-3200.2
-7384.4,-6335.6,20066,-5196.6,13205.2,-1804.8,-2352,-3197
-7371.7,-6326.4,20059.1,-5190.6,13198.4,-1789.3,-2340.5,-3195.3
-7356.9,-6323.6,20045.7,-5196.1,13171.7,-1796.7,-2342.4,-3217.5
-7355.6,-6331.1,20038.5,-5206.9,13149.4,-1808.1,-2346.4,-3233.3
-7369,-6347.9,20042.4,-5220.5,13148.2,-1831.2,-2353.6,-3239
-7379.7,-6356.4,20048.5,-5225.9,13149.1,-1848.1,-2363.3,-3240.2
-7388.8,-6353.7,20057.3,-5215.1,13150.8,-1838.7,-2359.8,-3230.4
-7385.3,-6350.5,20061.8,-5207.7,13156.7,-1826.9,-2357,-3222.1
-7372.7,-6341.4,20060.5,-5198.1,13157.7,-1806.3,-2349.3,-3214.2
-7361.2,-6331.1,20056.8,-5186.6,13155.5,-1784.4,-2336.1,-3205.8
-7355.9,-6333.5,20054.6,-5186.7,13150.8,-1782.9,-2326.9,-3206.5
-7361.9,-6339.7,20054.9,-5195.5,13148.7,-1796.6,-2329.1,-3210.4
-7373.6,-6348.7,20057.8,-5207,13150.8,-1817.4,-2338.3,-3215.5
-7381.2,-6359.4,20062,-5220.9,13151.1,-1841.9,-2352.8,-3224.2
-7376.8,-6361.7,20064.5,-5231.9,13140.1,-1853.4,-2365.4,-3233.8
-7372,-6356.5,20064.8,-5225.5,13136.8,-1842.9,-2367.7,-3232.6
-7364,-6347.8,20064.5,-5213.8,13137,-1827,-2363.4,-3226
-7351.9,-6333.6,20061.1,-5195.8,13136.5,-1798.7,-2350,-3213.3
-7351.4,-6331,20060.1,-5186.9,13139.5,-1789.3,-2338.2,-3205.1
-7356.6,-6337.9,20061.5,-5191.8,13141.8,-1801.4,-2337.2,-3205.2
-7362.2,-6345.7,20063.1,-5198.9,13143.7,-1814.5,-2342.5,-3208.3
-7378.4,-6359.7,20066.1,-5211.1,13148,-1833,-2351.9,-3213.1
-7396.8,-6370.9,20074.8,-5221,13164.5,-1851.5,-2362.7,-3210
-7397.7,-6368.1,20081.3,-5221.3,13176.2,-1854.6,-2371.6,-3206.5
-7389.4,-6359.6,20081,-5219.1,13177.5,-1841.2,-2371.9,-3204.8
-7377.1,-6348.4,20078.2,-5207.6,13177,-1817.3,-2361.9,-3198.1
-7372.7,-6342.9,20078.2,-5193.9,13185.5,-1800.9,-2347.8,-3188.2
-7371.9,-6340.4,20078.6,-5190,13190.1,-1800.8,-2340,-3185.3
-7375.9,-6343.2,20078.8,-5193.3,13190.1,-1811.6,-2341.7,-3189.9
-7387.1,-6353.6,20079.2,-5203.5,13193.6,-1828.7,-2350.3,-3196.6
-7407.4,-6371.4,20078.1,-5221.3,13209.8,-1851.9,-2363.6,-3199.2
-7411.4,-6374.8,20079.5,-5227.5,13216.8,-1864.3,-2376.3,-3202.4
-7402.1,-6363.8,20077.9,-5223.1,13213.9,-1851.7,-2378.8,-3203.8
-7387,-6349.1,20072.6,-5212,13208.1,-1829.6,-2372,-3203.5
-7357.7,-6332.4,20057.8,-5203.9,13179.9,-1813,-2368.1,-3219.4
-7341.1,-6322.3,20045.8,-5194,13153.4,-1788.8,-2352.6,-3224.2
-7351.2,-6330.4,20045.3,-5194.4,13149.5,-1798,-2342,-3224.1
-7362.8,-6340.2,20049.5,-5200.9,13150.2,-1814.1,-2341,-3222.6
-7383.7,-6352.5,20061.1,-5206,13154.3,-1831.5,-2342.6,-3220.5
-7394.4,-6364.4,20070.7,-5215.7,13163.8,-1852.2,-2356.5,-3223
-7394.3,-6364.3,20074.3,-5219.2,13168,-1853.8,-2365.9,-3223.4
-7386.2,-6354.9,20074,-5213.9,13167.4,-1839,-2365.6,-3220.7
-7368.7,-6337.7,20069.7,-5200.5,13160.2,-1811.5,-2354.8,-3215.2
-7360.2,-6329.7,20066,-5190.6,13155.4,-1794.1,-2339.9,-3209.6
-7360.5,-6331.2,20064.8,-5188.1,13154.8,-1793.2,-2331.3,-3206.7
-7365.4,-6339.4,20065.9,-5196.4,13152.9,-1810,-2334.3,-3211.8
-7364,-6347,20066.9,-5210.1,13141.8,-1825.8,-2343,-3222.6
-7376.7,-6361.2,20071.1,-5222.8,13141.6,-1846.7,-2357.1,-3230.9
-7383,-6364.6,20075.1,-5228.8,13144.5,-1858.5,-2370.3,-3234.2
-7376.2,-6354.9,20077,-5222.6,13147,-1846.1,-2370.5,-3230
-7371.9,-6347.4,20077.8,-5213.5,13150.7,-1831.4,-2364.9,-3222.9
-7361.6,-6336.9,20075.5,-5201.4,13150.4,-1812.5,-2354.1,-3214.8
-7355.2,-6330.3,20072.2,-5195,13149,-1797.3,-2341.1,-3208.4
-7361,-6332.9,20072.1,-5198.3,13151.3,-1801.3,-2335.7,-3206.2
-7380.1,-6340.9,20078.3,-5200.6,13166.3,-1817.9,-2338,-3201.1
-7396.1,-6355.1,20086,-5209.9,13179.8,-1845.4,-2351,-3203.8
-7402.8,-6364.4,20090.5,-5221.5,13185.1,-1863.5,-2366.9,-3210.9
-7400.3,-6361.7,20093.1,-5222.2,13188.5,-1861.3,-2375,-3212.7
-7397.6,-6359.7,20097.2,-5216.5,13199.4,-1847.5,-2371.1,-3206.2
-7388.2,-6348.7,20097.5,-5207.1,13203.3,-1830.1,-2362.6,-3199
-7379.3,-6337.7,20093.2,-5197.7,13199.7,-1810.7,-2351.3,-3194.2
-7377.7,-6335.1,20087.3,-5194.3,13198.5,-1798.8,-2340.7,-3189.9
-7391.5,-6346.7,20080.9,-5205.3,13211.2,-1809.6,-2338.2,-3185.7
-7401.3,-6352.2,20079.3,-5212.2,13218,-1827.3,-2344.8,-3188
-7411.8,-6363.5,20082.1,-5228.3,13219.1,-1855.7,-2361.5,-3199.9
-7406.9,-6360.9,20081.8,-5231.3,13216.1,-1860.7,-2373.6,-3208.2
-7385.3,-6352.5,20071.6,-5232.1,13189.6,-1859.9,-2386.8,-3230.9
-7366.9,-6342,20062.5,-5224.3,13164.4,-1835.3,-2380.6,-3237.2
-7355.7,-6330.4,20058.6,-5208.4,13157,-1808.1,-2361.3,-3226.2
-7355.1,-6326.8,20057.3,-5195.4,13153.6,-1793.4,-2341.5,-3216.4
-7369,-6331.5,20064.3,-5186.8,13154.8,-1796.3,-2327.2,-3207.4
-7378.4,-6342.4,20070.4,-5192.2,13162.2,-1814.8,-2332,-3206.4
-7389.3,-6353.2,20073.9,-5204.2,13166,-1834.2,-2344.3,-3212.1
-7399,-6360.5,20077.3,-5215.2,13167.7,-1850.7,-2358.6,-3219.4
-7393.8,-6355.6,20078.5,-5216.2,13163.4,-1854.1,-2368.8,-3224.5
-7386.1,-6348.5,20077.5,-5211.6,13159.1,-1840.2,-2366.6,-3223
-7375.1,-6342,20075.5,-5206.8,13157.1,-1819.3,-2356.8,-3216.1
-7364.5,-6331.6,20071,-5198,13151.2,-1798.7,-2343.4,-3209.9
-7354.7,-6327.6,20066.1,-5198.5,13136.1,-1790.6,-2333.2,-3211.3
-7360.2,-6335.6,20065.2,-5201.9,13132.7,-1798.4,-2331.8,-3212.2
-7370.6,-6346.4,20067,-5209.8,13135.2,-1817.3,-2340,-3214.8
-7381.7,-6358.6,20071.2,-5220.8,13139.2,-1839,-2353.1,-3219.4
-7386.3,-6363.5,20076.4,-5228.6,13145.1,-1852.5,-2365.6,-3221.9
-7384.5,-6357.3,20078.7,-5227.9,13147.1,-1849.4,-2369.9,-3221.3
-7379.8,-6349.9,20077.9,-5219.6,13146.4,-1835.6,-2366.4,-3217.1
-7372.5,-6338.9,20074.6,-5206,13146.2,-1812.4,-2355.4,-3207.8
-7373.9,-6331.7,20075.6,-5192.9,13157.9,-1795.1,-2339.7,-3192.5
-7379.4,-6332.8,20077.5,-5190.9,13168.1,-1799.7,-2333.5,-3187.7
-7385.2,-6340.2,20078.1,-5198.2,13171.9,-1814.5,-2338.1,-3193.3
-7395.6,-6353.4,20080.9,-5209.3,13176.6,-1832.3,-2346.9,-3200.6
-7409.6,-6369.8,20089.5,-5220.9,13190.5,-1856.2,-2360.6,-3204
-7409.4,-6369.2,20094.3,-5223.9,13196.8,-1860.1,-2370,-3204.2
-7401.9,-6362.3,20094.3,-5219.9,13195.1,-1849.3,-2370.2,-3204.2
-7393.5,-6353.4,20090.2,-5211,13194.3,-1829.8,-2361.9,-3199.1
-7392.8,-6345.4,20081,-5202.1,13205.3,-1807.4,-2347.6,-3185.3
-7392.5,-6340.3,20075,-5194.1,13209.4,-1797.9,-2334.8,-3178.5
-7396.4,-6345.1,20072.9,-5197.1,13207.8,-1811.3,-2335.8,-3183.5
-7397.9,-6350.7,20071.2,-5202.8,13204,-1825.7,-2343.6,-3193.4
-7388.1,-6355.9,20062.5,-5217.9,13179.7,-1851.2,-2366.3,-3223.5
-7381.8,-6358.5,20056.9,-5227,13157,-1853.9,-2377.3,-3238.7
-7379.8,-6358.3,20058.2,-5226.6,13152.6,-1846.7,-2376,-3236
-7377.4,-6351.1,20059.4,-5216.6,13150.2,-1831.8,-2367.3,-3227.2
-7377.6,-6340.3,20063.8,-5195.7,13149.8,-1807,-2347.9,-3210.3
-7372.7,-6335.6,20064.7,-5183.5,13153.7,-1790.4,-2333.3,-3198
-7375.2,-6340.6,20064.2,-5184.5,13155.6,-1793.9,-2327.6,-3196.7
-7378.6,-6346.2,20064.1,-5189.9,13155.9,-1807.3,-2331.4,-3199.9
-7383.9,-6356.3,20066.3,-5202.4,13153.4,-1828.8,-2342.6,-3209.6
-7391.6,-6367.1,20070.5,-5214.9,13152.8,-1850,-2357.1,-3218.7
-7390.6,-6367.8,20073.6,-5217.1,13153.7,-1854.4,-2367.2,-3221.3
-7385.1,-6362,20073.2,-5217.1,13150.2,-1843.9,-2367.9,-3221.3
-7368.7,-6350.2,20068.9,-5215.7,13135.8,-1823.9,-2361,-3220
-7357.5,-6340.6,20063.9,-5200.9,13129.6,-1798.8,-2346.4,-3210.4
-7356.2,-6338.1,20060.9,-5191.1,13128.9,-1791.3,-2335.2,-3203.7
-7361.8,-6344.9,20061.1,-5192.5,13131.4,-1799.9,-2333.6,-3200.6
-7371.5,-6354.7,20065.1,-5198.8,13137.7,-1817.7,-2339.5,-3200.6
-7384.5,-6366.3,20070.8,-5211,13143.1,-1846.6,-2354.3,-3208.6
-7390.8,-6371.9,20075.4,-5217.8,13146.4,-1862.3,-2369.8,-3214.8
-7388.6,-6369.9,20077.7,-5218.5,13149.5,-1856.6,-2375.4,-3212.8
-7390.9,-6362.7,20082.2,-5210.3,13162.7,-1840.5,-2369,-3200
-7384.5,-6351,20083.4,-5196.5,13171.1,-1825,-2360.7,-3190.5
-7374.7,-6341.3,20079.6,-5186.1,13171.2,-1807.2,-2349.4,-3185.9
-7375.3,-6343.4,20077.8,-5185.5,13172.4,-1804.3,-2341.7,-3185
-7385.1,-6352.7,20081.4,-5189.9,13183.7,-1815.4,-2341.8,-3183.9
-7397.4,-6363.3,20086.4,-5201.5,13191.4,-1838.6,-2351.5,-3189.4
-7404,-6371.9,20089.5,-5214.1,13191.9,-1860.6,-2367.3,-3200.5
-7408,-6377,20089.6,-5222.1,13193.4,-1867.8,-2378.4,-3206.8
-7408.7,-6374.8,20082.5,-5221.4,13204.8,-1852.3,-2376.5,-3199.3
-7398.8,-6359.4,20075.8,-5207.6,13207.2,-1827.6,-2365.3,-3190.6
-7388.3,-6345.8,20069.5,-5195.4,13202.2,-1805.8,-2350.1,-3186.2
-7378.7,-6336.8,20062.4,-5188.1,13195.7,-1796.9,-2340.8,-3187.5
-7363.7,-6339.1,20048.9,-5195.5,13168.7,-1808.7,-2347.9,-3211.1
-7358.9,-6345.8,20040.5,-5204.4,13145.1,-1812.8,-2350.1,-3225.4
-7373.4,-6362.8,20043.9,-5217.3,13143.3,-1836.6,-2356.4,-3230.9
-7384.4,-6370.2,20050.2,-5221.9,13144.5,-1854.2,-2366,-3231.6
-7392.2,-6366.2,20059.7,-5211.6,13146.6,-1846.7,-2363.4,-3223.2
-7388.5,-6360.5,20064.3,-5203.7,13152.5,-1835.9,-2362.3,-3215.7
-7374.6,-6348.7,20062.1,-5191.2,13152.6,-1810.4,-2352.9,-3206.8
-7364.3,-6339.8,20057.7,-5180.6,13149.9,-1789.1,-2338.8,-3199.5
-7362.9,-6340.3,20054.6,-5181.7,13143.6,-1789.2,-2332.2,-3201.6
-7367.9,-6345.5,20054.5,-5188.4,13141,-1802.4,-2334.7,-3206.2
-7377.7,-6354.9,20057.4,-5202.1,13143.2,-1822.6,-2342.1,-3212.1
-7387.6,-6367.5,20061.9,-5223.5,13143.3,-1848.1,-2356,-3221.9
-7381.1,-6368.4,20063,-5232,13132.1,-1852.7,-2367,-3230.3
-7374.4,-6365.1,20061.8,-5223.4,13128.4,-1838.7,-2366.3,-3228.5
-7368.5,-6359.1,20061.5,-5211.2,13128.7,-1826.8,-2360.6,-3223.8
-7357.3,-6345.2,20058.5,-5194.1,13128.6,-1804.1,-2348.8,-3213.5
-7354,-6338.8,20056.3,-5184.1,13130.7,-1791.2,-2336.8,-3204.8
-7360.3,-6345.9,20057.1,-5189.1,13133,-1803.5,-2334.2,-3205.4
-7367.9,-6353.1,20058.9,-5196.5,13134.9,-1819.8,-2339,-3209.1
-7383.6,-6365.5,20063.1,-5209.2,13139.8,-1842.6,-2351.3,-3215.5
-7401.3,-6375,20071.3,-5216.3,13155.7,-1858.1,-2363.8,-3212.8
-7402.4,-6373.6,20076.8,-5214.4,13167.1,-1857.5,-2371.4,-3207.8
-7395.2,-6364.9,20076,-5208.1,13168.6,-1844.6,-2371.4,-3205.4
-7383,-6350.9,20073.2,-5195.6,13168.5,-1822.3,-2362.5,-3199.1
-7378.6,-6344.3,20072.9,-5184,13177.3,-1802.9,-2346.2,-3187.7
-7380.1,-6343.4,20072.4,-5183.1,13181.7,-1803.3,-2337.1,-3184.2
-7384.8,-6346.7,20071.8,-5190.5,13180.6,-1815.6,-2339.4,-3188.8
-7397.2,-6357.7,20072.1,-5206.3,13183.5,-1835.8,-2349.8,-3196.8
-7414.6,-6370.4,20070.1,-5224.2,13198.6,-1858.3,-2365.8,-3200.4
-7415.2,-6368.2,20069.3,-5224.8,13204.2,-1862.3,-2376,-3202.2
-7405.3,-6363.2,20067.3,-5221.1,13201.1,-1849.2,-2375.8,-3202.5
-7389.7,-6354.4,20062.5,-5212.7,13194.9,-1829.5,-2367.8,-3201.9
-7360.5,-6338.6,20047.3,-5202.7,13166.1,-1814.7,-2365,-3217.5
-7345.5,-6330.4,20035.6,-5194.6,13140.5,-1793.5,-2350.8,-3222.7
-7352.7,-6338,20035.4,-5197,13136.2,-1800,-2341.7,-3221.3
-7363.8,-6347.5,20039.6,-5203.6,13136.6,-1816.2,-2342.1,-3221
-7384.6,-6359.5,20050.7,-5210.7,13140.9,-1833.5,-2344.9,-3219.2
-7394.9,-6370.3,20059.7,-5219.1,13150.3,-1853.9,-2360.1,-3220.9
-7390.8,-6367.6,20062.7,-5216.5,13153.9,-1852.4,-2369.3,-3220.7
-7383.4,-6359.6,20062.3,-5208.1,13152.8,-1837.3,-2368.2,-3217.4
-7367.7,-6346.2,20057.9,-5194.6,13145.4,-1813.4,-2359,-3212.3
-7358.4,-6338.6,20053.3,-5183.5,13139.9,-1792.9,-2344.3,-3206.7
-7361,-6340.1,20051,-5181.4,13138.9,-1791.4,-2334.7,-3203.5
-7366.8,-6348.8,20051.6,-5192,13136.3,-1809.2,-2337.2,-3206.8
-7367.8,-6356.2,20052.8,-5207.9,13124.9,-1827.4,-2345.5,-3216.3
-7377.7,-6367.1,20056.6,-5219.7,13124.5,-1848.5,-2358.9,-3223.4
-7382.1,-6371.4,20060.9,-5224.8,13127.9,-1860.4,-2371.2,-3226.5
-7376.6,-6366.9,20061.7,-5219,13129.8,-1848.5,-2372.7,-3222.4
-7370.2,-6360.7,20061.4,-5209.1,13132.9,-1829.4,-2367,-3214.2
-7360.3,-6350.6,20059.1,-5197.2,13132.3,-1807.8,-2354.6,-3206.2
-7354.5,-6344.4,20055.8,-5189.1,13131,-1794.1,-2341.3,-3201.1
-7361.5,-6348.8,20055.7,-5191.8,13133.8,-1800.7,-2336.3,-3201
-7380.5,-6357,20061.8,-5198.4,13149.7,-1818.3,-2338.3,-3197.8
-7395.1,-6367.7,20069.8,-5209.7,13163.6,-1846.1,-2352.3,-3202.9
-7400.9,-6376.1,20073.6,-5219.9,13168.1,-1862.7,-2369.3,-3211.7
-7397,-6373.1,20075.4,-5219.4,13171.1,-1858.2,-2375.9,-3213.4
-7395.4,-6369.3,20078.5,-5214.2,13181.5,-1844.3,-2371.4,-3207.3
-7386.1,-6357.4,20078.7,-5204.7,13184.6,-1827.8,-2363.3,-3200
-7374.7,-6343.9,20073.1,-5192.5,13179.7,-1804.9,-2350.3,-3193.9
-7377.5,-6346.3,20067.6,-5191.3,13179.3,-1799.8,-2339.9,-3192.5
-7391.3,-6356.8,20061.7,-5199.1,13192.5,-1813.9,-2339.9,-3190.1
-7401.2,-6366.6,20060.7,-5205.4,13199,-1832.1,-2348,-3193.4
-7407.5,-6375.5,20062.3,-5215.4,13198.5,-1852.5,-2362.5,-3203.2
-7405.1,-6376.9,20061.9,-5220.1,13195.4,-1859.3,-2373.8,-3212.6
-7381.1,-6366.2,20049.9,-5221.4,13168.6,-1855.1,-2384.2,-3234.3
-7363.1,-6355,20039.4,-5215.7,13143.2,-1829.1,-2375.8,-3240.3
-7355.2,-6345.3,20036.7,-5204.1,13136.6,-1808.8,-2358.5,-3231.7
-7353.4,-6337.2,20035.1,-5189.3,13133.3,-1792.8,-2341.4,-3221.4
-7370.2,-6341.8,20041.7,-5180.5,13134.6,-1795.5,-2329.9,-3213.4
-7377,-6353.3,20047.3,-5186.9,13141.4,-1810.6,-2335.6,-3211.5
-7386.7,-6364.8,20050.9,-5199.2,13145.6,-1831.1,-2348.5,-3217.4
-7391.7,-6369.9,20053.7,-5210.7,13147.1,-1847.6,-2363.3,-3223.1
-7387.1,-6367.3,20054,-5215.8,13142.2,-1847.9,-2372.5,-3227.5
-7380.1,-6361.3,20053.6,-5210.1,13138.5,-1836.7,-2371.6,-3226.7
-7370.9,-6348.3,20051,-5196.8,13136.4,-1817.6,-2362.6,-3220
-7361,-6340.5,20046.7,-5188.6,13131.2,-1800.5,-2349.1,-3213.9
-7349.7,-6341,20042.7,-5190.3,13117.8,-1792.8,-2338.7,-3214.5
-7356.1,-6348.7,20041.6,-5193,13115,-1801.9,-2337.5,-3216
-7367.5,-6358.9,20044,-5200.9,13117.6,-1823.8,-2345.2,-3219.5
-7378.6,-6369.1,20048.4,-5211.4,13122.1,-1846.4,-2359.1,-3224.4
-7383.7,-6374.9,20053.5,-5217.4,13128.1,-1857.5,-2372.6,-3226.4
-7378.6,-6367.7,20054.9,-5214.6,13129.9,-1849.1,-2376.3,-3224.5
-7372.7,-6358.5,20054.4,-5208.3,13129.9,-1833.8,-2370.1,-3220.6
-7365.7,-6347.1,20052.6,-5196.3,13131.3,-1813.7,-2357.4,-3211.9
-7371.3,-6342.7,20054.5,-5185.6,13144.4,-1800.6,-2342.2,-3198.1
-7377.7,-6346.1,20057.8,-5183.5,13156.3,-1806.9,-2338.9,-3193.4
-7384.1,-6355.2,20059.7,-5190.8,13160.7,-1822,-2346,-3198.2
-7394.6,-6367.8,20063.3,-5202.4,13165.4,-1841,-2357.9,-3205.4
-7407.3,-6381.4,20070.8,-5213.1,13179.7,-1859.6,-2370.1,-3208.2
-7407.2,-6382.1,20075.1,-5215,13186.2,-1864.3,-2379.3,-3207.9
-7398.3,-6376.3,20074.4,-5209.9,13184.1,-1850,-2378.6,-3206
-7390.7,-6367.4,20069.8,-5204.2,13182.4,-1830.2,-2370.5,-3201.7
-7389.8,-6357,20060,-5198.2,13192.4,-1810.6,-2356.6,-3189.7
-7387.1,-6348.2,20053.3,-5191.1,13195.8,-1799.9,-2343.8,-3182.6
-7389.9,-6350.7,20050.6,-5195.4,13193.6,-1810,-2342.4,-3186
-7393,-6357.5,20049.3,-5203.7,13190.6,-1827.4,-2349.4,-3195.8
-7384.1,-6364.2,20041.3,-5221.7,13166.7,-1856,-2372.7,-3226.6
-7376.2,-6363.9,20036.1,-5233.6,13144.6,-1857.4,-2383,-3242
-7376.2,-6363.2,20037.6,-5233.4,13140.5,-1852.1,-2381.1,-3240.7
-7373.2,-6354.2,20039.6,-5219.8,13138.4,-1839,-2374,-3232.1
-7372,-6342,20044.1,-5194.2,13137.7,-1807.9,-2352.3,-3214
-7371.3,-6339.5,20045.7,-5181.3,13142.6,-1795.2,-2338.8,-3203.3
-7376.8,-6345,20044.9,-5181.8,13144.7,-1797.9,-2335,-3202
-7383.6,-6351.6,20045.7,-5188.9,13146,-1809.2,-2337.8,-3203.9
-7390.6,-6363.1,20047.5,-5203,13143.5,-1829.1,-2347.5,-3212.7
-7397.1,-6375.4,20051.5,-5217.8,13143.6,-1848.2,-2360.7,-3221.1
-7393.2,-6374.4,20054.8,-5220.2,13144.8,-1853.1,-2369.6,-3223.7
-7385.2,-6368,20055.4,-5217.9,13141.4,-1847.1,-2370.8,-3225.1
-7366.8,-6355.1,20052.8,-5212.5,13127.9,-1831.7,-2366.3,-3226.2
-7352.3,-6345.2,20048.6,-5201.1,13122.4,-1804.9,-2352.8,-3218.5
-7352.3,-6343.4,20046.2,-5195,13122.3,-1796.4,-2340.4,-3213.5
-7357.3,-6348.2,20047.4,-5196.7,13124.9,-1807.2,-2338.1,-3212.7
-7368.2,-6357.9,20051.4,-5203.4,13130.6,-1825.5,-2344.8,-3214.8
-7379.6,-6371.4,20057,-5216.6,13135.4,-1850.5,-2359.2,-3222.4
-7383.9,-6378.8,20062.3,-5226.4,13139.2,-1865.1,-2373.1,-3228
-7380.5,-6375.1,20064.4,-5225.8,13142.4,-1855.4,-2376.8,-3225.5
-7383.9,-6369.1,20069,-5218.7,13156.4,-1842.4,-2371.5,-3213.8
-7377.3,-6358.3,20071.1,-5206.7,13166.4,-1825.7,-2362.5,-3202.5
-7366.8,-6349.9,20067.8,-5197.7,13166.3,-1807.8,-2352.1,-3197.1
-7366.5,-6352.2,20066.1,-5198,13167.4,-1806.3,-2345.8,-3197.1
-7377.9,-6362.7,20070.2,-5202.7,13179.6,-1818.6,-2346.1,-3196.2
-7390.7,-6375.2,20074.8,-5214,13187,-1840.5,-2355.6,-3201.4
-7400.1,-6385.3,20079,-5227.7,13188.5,-1864.6,-2372.7,-3212.3
-7399.9,-6383,20079.5,-5232.3,13190.2,-1865.6,-2382.7,-3215.9
-7402.3,-6380.4,20074.2,-5232.2,13202.7,-1852.6,-2380.9,-3208.6
-7392.4,-6367.1,20069.2,-5218.6,13205.9,-1831.4,-2371.6,-3199.9
-7379.9,-6354.5,20062.3,-5203.4,13200.8,-1809.7,-2357.5,-3195.4
-7370.7,-6348.5,20055.5,-5194.9,13194.3,-1802.8,-2347.1,-3198.2
-7356.8,-6350.5,20043.7,-5201.8,13168.3,-1819.5,-2354.8,-3224
-7352.5,-6357.2,20037,-5211.1,13146.2,-1823.9,-2357.3,-3238.4
-7367.1,-6371.8,20041.3,-5224.4,13145.1,-1845.7,-2362.9,-3244.3
-7377.1,-6377.5,20048,-5230.6,13146,-1861.1,-2372.9,-3246.1
-7384.5,-6376.1,20057.4,-5221,13148.3,-1852.5,-2371,-3236.8
-7378.3,-6370.9,20061.5,-5212.6,13153.7,-1839.4,-2369.3,-3228.6
-7364.6,-6358.7,20058.9,-5199.2,13153.4,-1813.4,-2358.4,-3219.6
-7356.2,-6350.5,20054.9,-5189.1,13150.6,-1793.8,-2344.4,-3212.8
-7354.2,-6352.3,20052.1,-5190.6,13144.5,-1795.6,-2337.4,-3215.1
-7358.9,-6358.7,20052.7,-5198.4,13142.2,-1809.1,-2338.1,-3220.1
-7369,-6369.7,20055.9,-5210.4,13144.2,-1829.1,-2346,-3226.1
-7377.5,-6380.2,20061.1,-5228.4,13143.9,-1855.2,-2362.1,-3236.7
-7371.3,-6378.2,20062.7,-5239.7,13132.6,-1860.8,-2373.6,-3246
-7366.5,-6375.3,20062.3,-5237,13128.8,-1844,-2371.7,-3243.4
-7360.6,-6367,20061.2,-5225.5,13128.8,-1829.1,-2365,-3238.2
-7349.3,-6353.5,20057.6,-5208.4,13128.1,-1804.2,-2351.9,-3228.7
-7346.6,-6349.7,20055.6,-5198.1,13131.1,-1793.1,-2340,-3220.9
-7352.2,-6354.7,20056,-5200.8,13133.3,-1805.7,-2338.9,-3221.9
-7359.9,-6362.4,20058.4,-5209.8,13135.6,-1823.8,-2344.1,-3226.5
-7372.7,-6374.8,20062.7,-5221.7,13141.2,-1845.1,-2354.6,-3233.3
-7390.2,-6385.4,20071.4,-5228.7,13157.8,-1862.1,-2364.9,-3231.9
-7391.8,-6384.1,20077.4,-5225.8,13169.9,-1863.2,-2373.8,-3229.3
-7383.9,-6375.2,20076.3,-5217.6,13171.4,-1847.1,-2373.7,-3227.2
-7370.9,-6363.3,20072.8,-5205.1,13170.7,-1822.3,-2362.9,-3220.1
-7366.3,-6357.1,20072.9,-5194.7,13179.5,-1803.3,-2346.2,-3208.3
-7371.5,-6361,20073.8,-5197.6,13185.2,-1806.8,-2338.3,-3205.5
-7375.3,-6364.6,20073.9,-5203.5,13184.5,-1819,-2342.8,-3209
-7387.3,-6376.4,20073.5,-5216.1,13187.4,-1834.8,-2351,-3215.9
-7405.2,-6391.1,20072.2,-5232.9,13203.4,-1858.5,-2365,-3218.7
-7405.4,-6389,20071.8,-5234,13209.8,-1861.1,-2372.7,-3218.3
-7401.2,-6382.6,20070.1,-5230.7,13208,-1852.1,-2373.2,-3219.3
-7387.8,-6370.2,20065.1,-5220.3,13202.5,-1832.6,-2367.5,-3218.3
-7357.9,-6354.3,20049.8,-5212.4,13173.8,-1816.5,-2364.8,-3232.6
-7342.3,-6346.1,20038.4,-5205.5,13148.5,-1794.6,-2348.9,-3237.9
-7349.6,-6354.2,20038.4,-5208,13145.1,-1803.5,-2339.7,-3238.1
-7360.4,-6362.6,20043.4,-5211.9,13146,-1821.2,-2341.1,-3237.1
-7382,-6375.2,20055.1,-5215.5,13150.4,-1840.3,-2345.1,-3235.1
-7392.2,-6386,20064.3,-5224,13159.8,-1858.8,-2360.3,-3236.3
-7389.3,-6383.3,20067.6,-5225.5,13163.3,-1855.1,-2369.6,-3235.6
-7379.9,-6373.6,20066.8,-5219.6,13162.4,-1836.8,-2367.5,-3231.9
-7366.6,-6360,20063.4,-5210.3,13156,-1816.6,-2359.2,-3228.3
-7356.2,-6350.7,20059.3,-5200.8,13150.9,-1794.5,-2344.6,-3222.2
-7357.6,-6355.4,20058.1,-5199.7,13150.3,-1791.2,-2334.4,-3219.3
-7362.6,-6365.1,20059.1,-5207.7,13148.4,-1807.5,-2336.4,-3224.6
-7365,-6374.8,20060.4,-5225.3,13137.5,-1827.1,-2346.3,-3236.5
-7376.2,-6384.6,20064.4,-5237.5,13137.3,-1847,-2359.8,-3243.8
-7379.1,-6385.7,20068,-5241.8,13140.2,-1857.5,-2372.4,-3246.3
-7372.4,-6377.2,20068.2,-5236.4,13141.5,-1845.9,-2373.4,-3241.3
-7365,-6370.4,20067.4,-5228.8,13143.6,-1827.6,-2366.2,-3232.8
-7355.5,-6360.4,20064.5,-5216.3,13142.9,-1805.5,-2352.7,-3223.9
-7352,-6355.8,20061.1,-5206,13141.4,-1792.4,-2339.5,-3218.9
-7359,-6361.8,20060.5,-5205.8,13143.8,-1799.2,-2335.6,-3219.4
-7377.1,-6371.6,20066.7,-5209.7,13159.4,-1816.5,-2338.2,-3215.7
-7394.1,-6385.1,20074.8,-5221.6,13173.5,-1844.4,-2352.1,-3219.4
-7399.7,-6392.1,20079.4,-5231.1,13179.1,-1860.9,-2369.4,-3227.1
-7394.7,-6388.3,20081.2,-5229.5,13182.4,-1854.6,-2376.2,-3228.1
-7393.1,-6386.3,20084.6,-5223.3,13193.2,-1841.8,-2371,-3222.5
-7384.2,-6374.7,20084.5,-5212.4,13197.1,-1823.9,-2360.8,-3215.3
-7374.2,-6362.2,20079.7,-5201.2,13193.3,-1803.2,-2347.3,-3210.2
-7376.8,-6362.4,20074.6,-5201.6,13192.8,-1798.9,-2338.4,-3209.6
-7389.8,-6371.6,20069,-5211.3,13205.6,-1812.2,-2340.6,-3207.8
-7398.4,-6380.4,20067.8,-5219.5,13212.3,-1829,-2348.1,-3211
-7406.5,-6390.2,20070.1,-5231.8,13212.6,-1851.6,-2362.6,-3220.4
-7404.9,-6390.3,20069.3,-5236.6,13209.1,-1859,-2375.5,-3229.5
-7379,-6378,20057.1,-5236.4,13182.1,-1852.1,-2386.6,-3249.9
-7360.6,-6366.9,20047,-5229.8,13156.3,-1826.2,-2378.2,-3255.7
-7353.5,-6359.2,20043.7,-5218.6,13149.4,-1805.5,-2359.9,-3246.5
-7352.1,-6353.7,20042.5,-5207,13145.9,-1791.4,-2341.9,-3235.8
-7367.5,-6358.1,20049.1,-5199.4,13146.8,-1794.1,-2328.6,-3226.9
-7374,-6364.4,20054.3,-5200.5,13153.5,-1806.9,-2332.3,-3224.2
-7387.8,-6380.5,20058.4,-5215.4,13158.1,-1832.9,-2347,-3232.1
-7391.2,-6383.5,20061.8,-5224,13159.6,-1848.8,-2363.4,-3238.1
-7385.5,-6380.3,20062.8,-5227.4,13155.4,-1849.5,-2373.1,-3242.8
-7378.9,-6376.6,20062,-5223.2,13151.5,-1836.1,-2371.3,-3242.1
-7365.5,-6364.1,20059.1,-5209.2,13148.7,-1809.9,-2359.5,-3233.5
-7357.2,-6357.5,20055.2,-5202.8,13143.3,-1792.2,-2343.3,-3228.3
-7350.5,-6356.3,20051.6,-5205.3,13130.4,-1789.7,-2333.9,-3230.2
-7357.1,-6365.4,20052,-5209.5,13129,-1801.4,-2334.5,-3232.7
-7366.8,-6376.1,20055.1,-5217.9,13132.6,-1821.5,-2343.7,-3236.1
-7376.4,-6385.2,20059.9,-5230.9,13137.5,-1840.7,-2356.4,-3239.9
-7382,-6388.2,20065.4,-5235,13144.2,-1852.9,-2369.6,-3240.7
-7378.5,-6383.7,20067.2,-5231.2,13146.3,-1846.8,-2373.4,-3238.9
-7372.8,-6377.6,20066.7,-5224.2,13145.6,-1831.9,-2369.5,-3234.8
-7363.4,-6365.9,20063.5,-5210.9,13145.5,-1806.4,-2357.1,-3225
-7368.8,-6360.9,20064.5,-5199.5,13157.2,-1792.9,-2341.7,-3211.2
-7378,-6362.6,20067.2,-5197,13168,-1803.4,-2338.5,-3208.1
-7384.5,-6370.4,20068.5,-5202.6,13171.9,-1818.8,-2344.3,-3212.4
-7393.2,-6385.9,20071.6,-5218.9,13176.8,-1836.2,-2352.9,-3218.2
-7404.9,-6398.3,20079.7,-5230.4,13191,-1853.7,-2362.7,-3220.9
-7404.6,-6396.5,20084.7,-5232.6,13198,-1858.2,-2370.4,-3221.6
-7398.9,-6391.2,20084.7,-5231,13196.7,-1848.1,-2370.8,-3223.3
-7387.9,-6378.1,20080,-5222.2,13195.3,-1825,-2362.9,-3218.4
-7385.6,-6369.8,20069.9,-5214.3,13205.4,-1802.7,-2348.2,-3206.5
-7381.7,-6363.9,20063.3,-5205.6,13208.5,-1792.6,-2336.8,-3199.8
-7387.2,-6371.2,20061.1,-5209.1,13206.5,-1805,-2337,-3204.4
-7390.3,-6377.5,20059.7,-5216.3,13203.6,-1824.3,-2346.3,-3214.7
-7380.7,-6383.5,20051.5,-5232.6,13179.7,-1851.4,-2369,-3244.3
-7373.5,-6385.5,20046.7,-5241.9,13157.9,-1853,-2379.3,-3259.2
-7373.6,-6384.6,20047.9,-5240.9,13154.2,-1846.5,-2377.8,-3257.4
-7370.6,-6374.4,20050.1,-5229.8,13152.2,-1830.7,-2369.4,-3248.2
-7369.9,-6360.4,20054.5,-5207,13151,-1801.4,-2347.2,-3230.7
-7367.6,-6355.8,20055.3,-5196.2,13155.2,-1789.2,-2334.1,-3220.1
-7369.4,-6359,20054.7,-5196.8,13156.7,-1795.2,-2331.4,-3220.5
-7372.9,-6364.4,20054.9,-5201.9,13156.6,-1807.3,-2336.2,-3224
-7380.1,-6375.2,20056.7,-5214,13153.9,-1827.9,-2348.2,-3234.1
-7388,-6385.4,20060.6,-5226.9,13153.3,-1848.6,-2363.8,-3242.5
-7386.1,-6384.4,20062.5,-5228.8,13153.9,-1847.9,-2371.1,-3242.3
-7380.8,-6380,20062.9,-5229.3,13151.4,-1840.1,-2369.6,-3242
-7363.7,-6367.8,20059.5,-5225.7,13137.3,-1822.8,-2361.3,-3242.3
-7352.8,-6355.6,20054.7,-5210.5,13131.7,-1797.6,-2344.9,-3234.9
-7353.8,-6353.4,20052.4,-5202.3,13132.3,-1792.9,-2333.3,-3230.1
-7360.3,-6361.3,20053.3,-5204.5,13135.3,-1803.7,-2333.7,-3228.6
-7369.1,-6371.4,20056.8,-5211.2,13141.4,-1820.6,-2341.7,-3229.8
-7382.1,-6383.6,20062.3,-5225.7,13145.8,-1848.2,-2356.8,-3237.6
-7386.3,-6388.3,20066.2,-5237.1,13148.1,-1860.2,-2369.8,-3241.8
-7385.7,-6382.2,20066.8,-5232.9,13149.9,-1852.2,-2373.2,-3239.4
-7390.9,-6375.2,20070,-5220.2,13162.4,-1839,-2367.1,-3228
-7382.5,-6366.4,20070.6,-5208.9,13170.8,-1818.6,-2355.8,-3216.4
-7374.1,-6359.1,20066.6,-5198.6,13171.1,-1800.3,-2342.5,-3210.3
-7375.9,-6362.7,20064.9,-5198.5,13172.2,-1803,-2336.3,-3209.7
-7385,-6373.3,20068.8,-5203.8,13183.7,-1815.4,-2336.4,-3207.6
-7396.6,-6385.4,20073.6,-5214.8,13190.8,-1839.4,-2346.4,-3212.9
-7404.4,-6394.9,20077.4,-5225.8,13192.1,-1859.3,-2361.5,-3221.6
-7406.6,-6396.6,20078,-5232.2,13194.6,-1863.5,-2372.6,-3224.9
-7409.2,-6393.7,20071.7,-5232.6,13206.6,-1851,-2372.8,-3217.4
-7399.7,-6381.1,20066.8,-5220.7,13210.3,-1832.6,-2365.3,-3208.8
-7385.9,-6366.6,20060.6,-5206,13205.2,-1806.7,-2350.7,-3202.3
-7376,-6359.5,20053.4,-5197.2,13198.5,-1793.3,-2339,-3202.2
-7363.8,-6362.2,20041.1,-5205.8,13172.4,-1811.7,-2347.1,-3227.5
-7360,-6369.3,20034.7,-5216.9,13149.8,-1821.5,-2352.8,-3243.6
-7372,-6384.3,20038.8,-5230.8,13148.6,-1843.3,-2360.3,-3249.4
-7380.9,-6390.8,20045.2,-5235.4,13149.9,-1856.5,-2369,-3250
-7389.1,-6388.2,20054.6,-5224.8,13152,-1847.5,-2365,-3241.4
-7384.1,-6381,20059,-5215.8,13157.9,-1836.1,-2362.5,-3233.9
-7372.7,-6368.2,20056.9,-5203.5,13158.6,-1813.3,-2351.6,-3226.8
-7361.3,-6356.1,20052.9,-5191.4,13156.1,-1792.9,-2337,-3219.9
-7360.9,-6358.9,20050.7,-5194.1,13150.7,-1796.9,-2331.6,-3222.1
-7365.9,-6365.5,20051.3,-5203,13148.5,-1810.2,-2335.1,-3226
-7375.6,-6376.5,20054.2,-5218.6,13150.4,-1830.5,-2345.3,-3232.3
-7383.6,-6387.1,20058.2,-5233.5,13149.8,-1853.3,-2360.3,-3241.6
-7375.5,-6387,20058.9,-5239.9,13137.5,-1856.8,-2369.2,-3249.1
-7371.8,-6382.9,20058.1,-5234,13133.8,-1843.4,-2368,-3245.8
-7366.9,-6373.6,20056.8,-5222.9,13133.9,-1828.2,-2361.7,-3237.7
-7355.2,-6362.3,20053.5,-5205.4,13133.5,-1803.5,-2348,-3225.5
-7352.8,-6363.2,20051.4,-5197.2,13135.9,-1792.7,-2335.5,-3215.9
-7362.1,-6370.9,20052.2,-5202.5,13138.7,-1808.6,-2335.4,-3215.9
-7369.1,-6377.3,20053.8,-5210.1,13140.8,-1825.7,-2342.8,-3219.3
-7383.5,-6388.4,20058.2,-5222.2,13145.8,-1848.4,-2356.5,-3225.4
-7400,-6395.2,20066.2,-5228.6,13161.3,-1862.9,-2367.6,-3223.1
-7401.2,-6390.8,20071.2,-5226.4,13172.2,-1860.4,-2373.7,-3218.7
-7393.3,-6382.7,20070.4,-5220.8,13173.7,-1845.6,-2372.4,-3216.2
-7381.8,-6372.6,20066.7,-5210.9,13173.4,-1821.9,-2361.8,-3209.6
-7376.5,-6365.5,20065.8,-5198.4,13182.5,-1800.1,-2344.9,-3197.9
-7380.8,-6366.4,20067.3,-5197.4,13188.5,-1805.7,-2337.6,-3195.2
-7386.6,-6371.2,20068,-5204.1,13188.7,-1821.7,-2341.9,-3200.8
-7396.3,-6386,20068.5,-5222.6,13191.7,-1839.1,-2350.4,-3208.6
-7413.5,-6401.6,20066.9,-5240.8,13206.1,-1861.4,-2363.9,-3212.3
-7411.9,-6398.8,20065.9,-5239.5,13211.9,-1863.7,-2373.2,-3212.5
-7405.7,-6391.6,20063.6,-5233.1,13208.9,-1851.2,-2373.2,-3213.1
-7391.9,-6378.1,20057.8,-5220.5,13202.4,-1829.1,-2365,-3211.4
-7363.3,-6361.2,20042.5,-5211.9,13173.9,-1812.7,-2361.2,-3226.3
-7347.8,-6353,20030.6,-5205.2,13147.7,-1791.1,-2347.8,-3231.6
-7354.6,-6363.6,20030.6,-5208.9,13143.5,-1802.3,-2341.8,-3232.8
-7366.2,-6372.4,20034.3,-5212.2,13143.7,-1818.2,-2344.6,-3232.6
-7388.8,-6385.3,20046.3,-5215.4,13147.9,-1838,-2350.9,-3230.5
-7397.3,-6394.2,20055.4,-5222.5,13156.6,-1856,-2367,-3231
-7392.1,-6390.6,20057.5,-5221.4,13159.3,-1852.1,-2375.2,-3230.1
-7383.6,-6381.5,20056.7,-5214.3,13157.5,-1839.1,-2374,-3227.3
-7367.4,-6366.7,20052.3,-5201.9,13149.8,-1815.1,-2364.5,-3222
-7357.1,-6358.9,20047.3,-5193.7,13144,-1794.6,-2349.4,-3215.2
-7359.4,-6360.8,20044.9,-5195.5,13142.7,-1793.4,-2340.6,-3211.1
-7366,-6368.3,20045,-5209.5,13140.2,-1809.5,-2342.5,-3214.5
-7366.9,-6377.5,20046.1,-5224.8,13129.4,-1827.4,-2350.3,-3224.7
-7378.6,-6392.2,20050.1,-5235.3,13129.2,-1851.2,-2364.3,-3233.1
-7381.7,-6394.4,20054.1,-5235.8,13132.1,-1860.2,-2376.3,-3234.9
-7377.7,-6386.9,20055.6,-5227.1,13134.6,-1849.4,-2377.8,-3230.4
-7370.7,-6378.8,20055.5,-5216.1,13138,-1832.2,-2371.6,-3221.9
-7360.8,-6366.4,20052.8,-5204.3,13137,-1811.7,-2358.2,-3213.7
-7356.3,-6360.3,20049.2,-5197.6,13135.5,-1798.7,-2345.2,-3208.1
-7367.2,-6367.8,20049.6,-5202.8,13138.5,-1809.8,-2343.2,-3209.1
-7384.1,-6374.4,20055.5,-5208.1,13153.4,-1824.3,-2346.7,-3203.8
-7399.8,-6386.6,20063.4,-5219.5,13167.2,-1849.2,-2359.5,-3206.4
-7405.4,-6390.6,20067.6,-5226.5,13172.9,-1864.7,-2375.1,-3213.4
-7402.1,-6387.3,20069.9,-5225,13176.1,-1861.2,-2381.9,-3215.2
-7398.7,-6387.5,20073,-5222.9,13186.7,-1847.4,-2376.7,-3207.9
-7387.2,-6374.3,20072.4,-5213.7,13190.8,-1824,-2364.4,-3197.9
-7379.3,-6363.2,20068.2,-5205.2,13187.5,-1804.8,-2351.1,-3192.7
-7383,-6364.7,20064.2,-5208.1,13187.6,-1804.4,-2343.8,-3192.4
-7396.1,-6374,20058.9,-5217.8,13200.9,-1817,-2344.7,-3190.3
-7406.2,-6382.9,20058,-5226,13207.8,-1834.1,-2351.6,-3193.8
-7414.1,-6391.5,20059.8,-5238.1,13207.9,-1854.9,-2364.6,-3203.7
-7411.9,-6392.1,20059.3,-5242.1,13204.4,-1862.3,-2375.8,-3213
-7386.6,-6380.8,20047.2,-5241.3,13177,-1853.9,-2385.1,-3233.3
-7367.8,-6368.7,20037,-5234.2,13152.2,-1827.6,-2376.7,-3239.7
-7359.2,-6359.6,20033.5,-5220.9,13145.8,-1805.6,-2358.6,-3231.1
-7358.5,-6354.2,20032.3,-5208.3,13142.2,-1793,-2341.1,-3221.1
-7374.1,-6358.9,20039.4,-5200.9,13143.4,-1796.8,-2328.9,-3212.8
-7385,-6369.7,20045.6,-5205.7,13150.9,-1815.9,-2334.9,-3212.7
-7395.5,-6382.4,20050.3,-5217.9,13155.7,-1840.9,-2350.3,-3220
-7399.3,-6387.6,20053.9,-5225.1,13157.5,-1856.2,-2366.8,-3226.4
-7392.1,-6382.9,20054.2,-5225.7,13153,-1852.8,-2375.5,-3230.1
-7384.8,-6376.6,20053,-5221.5,13148.6,-1838.9,-2373.4,-3228.7
-7375.9,-6364.6,20050.1,-5209.8,13145.6,-1816.9,-2363.5,-3221.8
-7365.4,-6354.8,20045.9,-5203.1,13139.6,-1798.8,-2349.6,-3216.5
-7356.7,-6353.1,20041.1,-5209.4,13125.1,-1792.4,-2338.4,-3218.4
-7362.6,-6361.2,20039.6,-5212.3,13122.2,-1801.8,-2337.1,-3221
-7372.9,-6375.5,20041.4,-5219.1,13124.6,-1823.4,-2344.8,-3225.7
-7383.4,-6387,20045.8,-5227.9,13128.6,-1846.9,-2359.1,-3231.7
-7388.8,-6389.9,20050.5,-5229.8,13134.7,-1858.9,-2372.3,-3233.1
-7384.4,-6384,20051.2,-5225.5,13135.8,-1851.6,-2377,-3231.5
-7375,-6374.1,20049.4,-5216.8,13134.4,-1834,-2372.3,-3226.8
-7366.8,-6362.7,20046.2,-5203.8,13134.5,-1811.4,-2359.6,-3217.4
-7371.5,-6358.2,20046.9,-5194.4,13146.2,-1797.9,-2344.2,-3202.6
-7379.5,-6364.1,20050,-5197.6,13157,-1808.7,-2341.3,-3198.9
-7385.1,-6371.1,20051.2,-5205.3,13161.2,-1823.3,-2347.2,-3203.5
-7398.2,-6381.4,20054.7,-5215,13165.9,-1843.3,-2358.6,-3210.6
-7410.7,-6393.8,20062.6,-5222.9,13179.5,-1861.9,-2371.1,-3212.4
-7408.8,-6393.6,20066.4,-5228.3,13186,-1862.6,-2379.3,-3210.8
-7401.2,-6384.3,20065.4,-5225.8,13184.3,-1849.1,-2378.5,-3210.1
-7393.3,-6373.3,20060.4,-5219,13183.3,-1828.2,-2370.9,-3204.7
-7391.7,-6365.3,20050,-5211.7,13192.5,-1805.2,-2357.2,-3191.6
-7392,-6360.8,20043.5,-5204.6,13195.1,-1796.1,-2345.4,-3185.6
-7395.1,-6365,20040.3,-5206.7,13192.9,-1806.1,-2344.9,-3188.8
-7400.2,-6374.7,20038.4,-5215.4,13190,-1825.3,-2353.1,-3199.3
-7390.5,-6381.6,20030.1,-5231.3,13166.1,-1852.4,-2375.9,-3229.6
-7382.9,-6384.1,20024.8,-5238.1,13143.6,-1852.7,-2385,-3244.8
-7382.5,-6384.1,20026.1,-5236.3,13139.4,-1845.6,-2382.6,-3241.9
-7376.5,-6373.4,20026.7,-5222.9,13136.6,-1826.5,-2372.9,-3231.7
-7377.9,-6360.8,20030.7,-5202,13135.7,-1800.5,-2350.7,-3216.2
-7374.7,-6354.7,20031.5,-5190.6,13140.2,-1789.2,-2338.2,-3206.1
-7377.8,-6361,20031.1,-5193.2,13141.7,-1795.4,-2335,-3206.1
-7381.9,-6368.6,20031.6,-5200.3,13142.5,-1806.9,-2339.4,-3208.8
-7390,-6379.1,20033.9,-5213.7,13140.2,-1828.7,-2351.5,-3218.1
-7397.1,-6387.3,20037.8,-5227.4,13140.1,-1847.8,-2365.5,-3225.1
-7396.8,-6385.5,20040,-5230.8,13141.1,-1849.7,-2373.5,-3226
-7390.3,-6380.8,20039.6,-5230.2,13137.6,-1840.6,-2372.2,-3226.9
-7369.7,-6369.7,20035.9,-5227.5,13123.2,-1819.8,-2363.2,-3226.2
-7357,-6361,20030.5,-5214,13117.2,-1793.2,-2347.1,-3217.6
-7359.9,-6361.6,20027.7,-5205.4,13116.8,-1789.3,-2336.1,-3213.1
-7369.1,-6366.5,20028.3,-5206.1,13119.6,-1804.7,-2336.5,-3213.1
-7378.9,-6374.7,20031.3,-5211.3,13125.6,-1822.7,-2344,-3214.9
-7389.7,-6388.8,20035.9,-5227,13130.2,-1847,-2359.3,-3222.4
-7393.4,-6392.1,20039,-5234.5,13132.5,-1855.8,-2372.7,-3226.9
-7391.6,-6387.6,20039.7,-5231.8,13135,-1847.6,-2376.8,-3224.5
-7393,-6379.6,20042.9,-5221.4,13147.5,-1833.2,-2369.6,-3212.2
-7387.1,-6368.6,20043.3,-5208.7,13155.8,-1816.9,-2358.8,-3201.5
-7379.6,-6360.7,20039.1,-5199.5,13155.4,-1800,-2347.1,-3196.2
-7380.6,-6364.4,20036.9,-5199.8,13156.5,-1800.2,-2340.7,-3195.9
-7391.9,-6375.9,20040.5,-5204.8,13168,-1813.6,-2341.2,-3195.9
-7404.7,-6388.3,20046.1,-5217.5,13175.3,-1839.4,-2353.6,-3203
-7412.3,-6396.7,20049.9,-5231.2,13176.2,-1858.9,-2370.5,-3213.3
-7411.1,-6395.2,20049.1,-5235,13177.4,-1856.3,-2379.9,-3215.5
-7413.1,-6392,20042.3,-5234,13189.1,-1841.2,-2377.3,-3207.2
-7404.7,-6378,20036.5,-5220.7,13192.3,-1821.5,-2367.7,-3198.2
-7393,-6363.2,20030.3,-5208.6,13187.8,-1798.8,-2353.6,-3191.9
-7384.7,-6360.6,20024.3,-5207.1,13182,-1792.5,-2344.4,-3193.5
-7370,-6361.8,20011.6,-5212.5,13155.7,-1804.9,-2349.4,-3216.7
-7368.1,-6370.9,20005.2,-5221.1,13133.5,-1818.4,-2354.1,-3232.8
-7381.5,-6386.8,20009.2,-5232.4,13131.9,-1842,-2361.1,-3238.8
-7390.7,-6392.8,20015.6,-5235.2,13132.5,-1856.1,-2369.4,-3239.8
-7397.6,-6388.8,20024.8,-5223.4,13134.5,-1847.2,-2365.6,-3230.7
-7393.6,-6383.6,20028.5,-5213.5,13139.6,-1834.2,-2363.7,-3222.6
-7381.5,-6372.3,20026,-5199.3,13139.9,-1808.7,-2353.3,-3213.9
-7371.2,-6364.1,20022.1,-5188.4,13138,-1789,-2339.3,-3207.6
-7369.7,-6365.5,20019.3,-5189.8,13132.4,-1792.8,-2333.1,-3210.8
-7374.7,-6372.2,20020,-5197.5,13130.6,-1809.9,-2336.8,-3216.1
-7385.1,-6383.5,20023.4,-5209.4,13133,-1832.8,-2348.1,-3222.5
-7393.4,-6394.8,20027.6,-5225.3,13132.7,-1855.5,-2363.2,-3231
-7384.7,-6392.3,20028.9,-5233.4,13120.9,-1858.3,-2373.4,-3238.3
-7378.4,-6387.6,20028,-5228.4,13116.8,-1843.2,-2372.2,-3236.2
-7370.1,-6377.8,20025.9,-5217.4,13116.7,-1825.2,-2364.4,-3229
-7359.6,-6365.9,20022.6,-5202.3,13116.5,-1803.2,-2350.6,-3218.5
-7359.2,-6364,20021.2,-5194.5,13119.8,-1795.6,-2340,-3211
-7366.4,-6370.2,20021.9,-5199.1,13122.3,-1808.8,-2339.8,-3211.7
-7374.3,-6377.6,20024.2,-5207.7,13124.4,-1825.6,-2346.3,-3215.4
-7388.2,-6393.5,20029.2,-5222.3,13129.9,-1848.6,-2358.9,-3221.3
-7404.5,-6400.7,20038.5,-5228.1,13146.5,-1864.1,-2370.9,-3218.1
-7404.4,-6395.6,20044.7,-5225.2,13158.4,-1863.2,-2377.5,-3212.7
-7396.6,-6386.8,20044.3,-5219.6,13160.2,-1848.9,-2376.4,-3209.6
-7383.9,-6373.6,20041.5,-5208.8,13160.6,-1824,-2364.6,-3201.8
-7379.6,-6368.3,20041.7,-5199.3,13169.6,-1804.3,-2348,-3190.4
-7383,-6371.3,20042.9,-5201.6,13174.9,-1810.5,-2343.1,-3188.3
-7387.8,-6375.7,20043.5,-5208.3,13175.1,-1822.7,-2347.1,-3191.7
-7401.9,-6390.1,20044.8,-5224,13178.8,-1845.4,-2357.2,-3199.1
-7418.9,-6402.8,20044,-5240.2,13194.2,-1868.2,-2372.8,-3201.5
-7416.4,-6398.4,20044.2,-5243,13200.2,-1869.4,-2381.7,-3201
-7408.4,-6390.9,20042.1,-5239.7,13197.2,-1857.6,-2381.3,-3202.1
-7392.1,-6375.5,20035.7,-5222,13191.1,-1834.2,-2373.1,-3200.3
-7365.7,-6359.9,20020.3,-5209.7,13162.9,-1821,-2369.5,-3216.4
-7350.9,-6355.4,20009.5,-5205.9,13138,-1804.2,-2356.8,-3222.5
-7358,-6366.4,20010.4,-5213.9,13134.8,-1814.1,-2349.2,-3221.8
-7370.1,-6374.3,20014.8,-5216.9,13135,-1828.7,-2349.5,-3220.3
-7393,-6386.8,20027,-5220.6,13139.7,-1849,-2353.8,-3217.9
-7402.9,-6395.7,20036.8,-5228.3,13148.9,-1868.8,-2368.1,-3218.5
-7397.4,-6391.4,20039.8,-5227.5,13152,-1865.4,-2375.8,-3218.1
-7388.1,-6382.6,20039.4,-5221.6,13150.9,-1849.1,-2374.2,-3214.8
-7373.1,-6368.7,20035.9,-5210.9,13144,-1826.9,-2364.1,-3209.8
-7364.3,-6359.6,20032.4,-5201.4,13139.3,-1807.4,-2350.3,-3203
-7366.8,-6364.1,20031.2,-5200.7,13138.9,-1807.3,-2343.1,-3200.5
-7372.8,-6374.7,20032.3,-5208.7,13136.9,-1823.7,-2347,-3204.5
-7373.5,-6384.6,20033.5,-5224.2,13125.9,-1842.6,-2356.1,-3215.3
-7383.3,-6396.5,20037.8,-5237,13125.7,-1863.9,-2369.8,-3223.2
-7386.7,-6397.6,20041.5,-5241.4,13128.3,-1871.2,-2381.4,-3223.6
-7380.5,-6388.2,20041.9,-5235.1,13129.6,-1857,-2382,-3217.3
-7374.3,-6378.6,20041.3,-5224.7,13132,-1839,-2376.1,-3208.8
-7364.4,-6367,20038,-5212.3,13130.8,-1819.1,-2363.4,-3200.5
-7361.4,-6362,20035,-5204.4,13129.5,-1807.2,-2349.6,-3194.9
-7370.2,-6368.2,20035.5,-5207.9,13132.4,-1818.4,-2346.8,-3195.5
-7389,-6379.5,20042.5,-5214.7,13148,-1838,-2350.5,-3191.8
-7405.5,-6393.6,20051,-5227.4,13161.6,-1865.9,-2364.7,-3195.7
-7409.4,-6398.1,20055.1,-5235.3,13166.2,-1879.9,-2379.8,-3202.4
-7403.4,-6391.9,20055.9,-5231.2,13168.5,-1868.8,-2383,-3202
-7404.8,-6391.9,20058.9,-5225.9,13179.3,-1856,-2378.3,-3195.8
-7396.7,-6379.6,20057.9,-5214.7,13182.8,-1835.4,-2369,-3186.2
-7390.2,-6370.4,20052.4,-5205.1,13179.2,-1812.6,-2354.7,-3179.7
-7395,-6374.1,20047.4,-5206.2,13179,-1808.9,-2344.7,-3179
-7407,-6385.4,20042,-5215.5,13192.2,-1821.5,-2345.2,-3176
-7414.5,-6395.9,20042.1,-5224.1,13199.2,-1844.3,-2354,-3180.7
-7418.5,-6403.9,20045.1,-5235.5,13200,-1870.3,-2370.9,-3192.4
-7410.6,-6400.3,20045.3,-5236.9,13196.7,-1878.3,-2385.4,-3201.4
-7381.1,-6386.4,20033.7,-5233.7,13169.3,-1868.9,-2395.8,-3222.1
-7360.3,-6374.5,20024,-5226.3,13143.8,-1842.9,-2387.1,-3228.2
-7353.6,-6366.8,20021.4,-5215.2,13137.9,-1821,-2368,-3219.1
-7355.2,-6362.3,20021.3,-5203.4,13135.5,-1809.8,-2351.2,-3209.4
-7372.1,-6368.1,20029.2,-5196.8,13137.9,-1816.1,-2340.1,-3202.1
-7379.7,-6381.8,20035.3,-5205.9,13145.6,-1831.1,-2345.2,-3200.7
-7388.1,-6395.4,20039.4,-5220.7,13150.6,-1852.6,-2358.2,-3207.7
-7391.5,-6400.1,20043.7,-5229.9,13152.6,-1869.8,-2372.7,-3214.5
-7384,-6395.5,20044.8,-5231.3,13148.5,-1866.8,-2379.1,-3217.2
-7375.7,-6389.6,20044.3,-5227.4,13144.6,-1852.7,-2376.6,-3214.6
-7364.8,-6379.2,20042.4,-5216.1,13142.8,-1830.9,-2367.1,-3205.9
-7355.9,-6371.7,20039.5,-5208.9,13138,-1816.4,-2354.9,-3199.4
-7348,-6372.1,20036.6,-5213.1,13124.7,-1813.9,-2347,-3201
-7354.2,-6380.8,20037.5,-5218,13122.5,-1825.6,-2348.1,-3202.5
-7365,-6393.2,20040.8,-5227.7,13125.9,-1846.2,-2356.9,-3206.1
-7373.4,-6402.8,20045.4,-5238.1,13130.2,-1867.2,-2371.1,-3209.9
-7379.6,-6405.6,20050.4,-5242,13136.1,-1875,-2382,-3208.7
-7378.7,-6399.9,20052.1,-5238.8,13137.9,-1865.7,-2383.3,-3205.1
-7370,-6392,20051.7,-5232,13137.7,-1849.7,-2377,-3200.1
-7360.3,-6380,20048.9,-5219.6,13138.3,-1826.4,-2363.7,-3190.3
-7366.8,-6375.9,20050.5,-5213.2,13151.5,-1814.7,-2348.4,-3176
-7376.4,-6381,20054.6,-5218.2,13163.5,-1826.3,-2346,-3172.5
-7382.8,-6389.4,20056.7,-5224.2,13168.2,-1842.4,-2353.3,-3177.9
-7391.3,-6402.3,20060.8,-5232.7,13173.3,-1861.4,-2365,-3186.1
-7402.3,-6413.7,20069.7,-5240.1,13187.2,-1879.1,-2377.6,-3189.9
-7399.4,-6410.7,20075.1,-5241.5,13194,-1882.1,-2387.1,-3190.3
-7391.4,-6401.1,20074.3,-5238.3,13192,-1867.4,-2385.5,-3189.7
-7383.9,-6390.4,20069.5,-5230.2,13191,-1845.8,-2376.5,-3184.6
-7381.9,-6383.9,20060.2,-5222.8,13201.4,-1824.8,-2361.2,-3171.8
-7380.9,-6379.3,20054.8,-5215.1,13205.6,-1817.5,-2348.8,-3166.4
-7387.2,-6386.8,20053,-5219.9,13204,-1830.6,-2348.1,-3171.7
-7390.8,-6395.6,20052.7,-5229.5,13201.6,-1850,-2358.4,-3182.4
-7380.5,-6402.4,20044.9,-5245,13177.8,-1874.4,-2380.3,-3213.1
-7372.7,-6405.2,20040.1,-5254.1,13155.8,-1873.5,-2389.4,-3228.2
-7369.9,-6403.4,20041.2,-5251.7,13151.6,-1862.9,-2386.1,-3225
-7366.6,-6396.5,20043,-5240.9,13148.9,-1847.1,-2377,-3215.8
-7365.7,-6381.8,20046.5,-5217.1,13147.7,-1815.7,-2353.7,-3197.2
-7365,-6379.4,20048.2,-5207.1,13153,-1805.4,-2340.7,-3187
-7368.8,-6384.7,20048.9,-5209.6,13155.8,-1813.2,-2339.1,-3187.1
-7371.7,-6389,20050.4,-5214.5,13157,-1827.3,-2344.6,-3191.3
-7379.6,-6399.4,20054,-5226.6,13155.3,-1851.5,-2357.5,-3203
-7385.7,-6409.4,20058.4,-5240.5,13155.8,-1869,-2371.7,-3210.7
-7384.1,-6408.9,20060.8,-5243.7,13156.7,-1864.6,-2376.7,-3209.8
-7379.4,-6405.5,20061.3,-5242.5,13153.5,-1856.9,-2376.1,-3209.3
-7359.9,-6392.7,20057,-5236,13138.6,-1834.1,-2367.9,-3208.1
-7350.4,-6383.5,20052.3,-5222.3,13132.9,-1808.7,-2352,-3200.4
-7352.5,-6384.3,20050.8,-5217.9,13133.7,-1807.2,-2341.7,-3196.5
-7358.4,-6389.2,20052.5,-5220.9,13137.8,-1819.9,-2341.2,-3195.9
-7368.5,-6399.6,20057,-5228.5,13145,-1838.2,-2348.3,-3198.2
-7380.6,-6412.2,20062.6,-5241.2,13149.9,-1864.2,-2363.2,-3206.3
-7384.6,-6417.8,20066.7,-5248.4,13152.9,-1875.7,-2376.1,-3211.4
-7381.7,-6410.2,20067.9,-5243.8,13155.4,-1867.5,-2379.6,-3209.5
-7383.1,-6401.2,20071.6,-5235.3,13168.3,-1852.4,-2372.4,-3198.3
-7374.8,-6388.7,20072.7,-5226.4,13177.1,-1831.7,-2361.2,-3187.2
-7368.6,-6381.2,20068.4,-5218.3,13176.9,-1813.8,-2349.3,-3182.9
-7373.2,-6384.5,20066.1,-5217.6,13178.4,-1816,-2342.9,-3183.7
-7384.4,-6395.6,20071.3,-5223.6,13191.5,-1831.7,-2343.5,-3184
-7395.7,-6409.1,20077.6,-5237.8,13199.9,-1857.8,-2355,-3190.3
-7401.7,-6414.6,20081.5,-5248.5,13201,-1874.6,-2369.5,-3199.1
-7402.7,-6414.9,20082.5,-5253.9,13203.3,-1875.5,-2378.1,-3202.3
-7405.3,-6412,20076.4,-5252.4,13215.4,-1862.5,-2378.1,-3194.5
-7395.4,-6398.3,20070.5,-5236.8,13218.3,-1837.1,-2367.4,-3184.7
-7380.8,-6386.1,20064.4,-5223.8,13213.4,-1814.8,-2352.5,-3179.3
-7374.2,-6381.8,20058.1,-5217.9,13207.7,-1806.3,-2340.9,-3181
-7360.9,-6383.7,20047.1,-5227.3,13182.6,-1824.6,-2350.5,-3206.3
-7358.9,-6390.7,20041.5,-5238.2,13161.1,-1833.9,-2355.4,-3222.4
-7372.2,-6405.2,20046,-5250.5,13159.9,-1856.4,-2362.1,-3228.4
-7378.8,-6410.1,20052.4,-5252.7,13161.2,-1868.8,-2369.8,-3228.2
-7386.3,-6405.9,20061.6,-5240.6,13163.5,-1859.4,-2365.2,-3217.8
-7383.6,-6400.8,20066,-5231.8,13169.4,-1848.3,-2364.2,-3209.9
-7369.3,-6386.7,20063.6,-5216.3,13169.2,-1822.1,-2354.8,-3200.3
-7360,-6379.4,20059.2,-5207.8,13166.6,-1803.4,-2341.7,-3192.6
-7359.7,-6383.2,20057,-5212.3,13161.7,-1808.8,-2337,-3194.9
-7363.3,-6390,20058.2,-5219.2,13159.7,-1824.5,-2341.9,-3199.5
-7374.3,-6402.6,20062.3,-5231.8,13162.1,-1847,-2353.5,-3206.3
-7381.4,-6412.4,20066.4,-5246.6,13161.6,-1868.3,-2368.7,-3215
-7371,-6410.4,20067.2,-5254.4,13149.7,-1869.5,-2377.5,-3222.7
-7364.3,-6404.8,20066.7,-5247.9,13146.2,-1854,-2375.1,-3220.3
-7355.5,-6395.1,20064.8,-5236.7,13146.1,-1836,-2366.4,-3213.3
-7345.4,-6383.9,20061.7,-5222.7,13146.2,-1814.9,-2353.7,-3203.9
-7344.4,-6381,20060.1,-5214.8,13149.2,-1805.3,-2342.6,-3197.1
-7351.8,-6386.4,20060.8,-5222.9,13151.2,-1818.6,-2342.3,-3200.1
-7361.3,-6393.6,20062.3,-5230.4,13153.1,-1835.4,-2348.1,-3207.4
-7375.2,-6405.6,20066.8,-5238.8,13158.1,-1859,-2362.3,-3216.2
-7389.4,-6413.6,20075,-5242,13173.4,-1871.6,-2374.2,-3213.8
-7388.3,-6410.3,20079.3,-5236.7,13183.9,-1865.1,-2378,-3208.1
-7380.8,-6401.7,20078.6,-5230.2,13185.1,-1851.7,-2375.8,-3206.1
-7367.7,-6385.5,20074.5,-5215.4,13184.4,-1824.3,-2363.2,-3198.4
-7366.6,-6383.5,20074.7,-5207.8,13194.2,-1809.8,-2347.9,-3188.3
-7370.5,-6385.7,20074.9,-5209.6,13198.7,-1814.7,-2342,-3185.3
-7376.2,-6390.7,20074.7,-5217.7,13197.8,-1828.2,-2345,-3189.9
-7390.1,-6404.6,20075.4,-5233.9,13200.4,-1849.2,-2354.8,-3198.2
-7405.5,-6418.2,20073.3,-5248.5,13214.7,-1868.7,-2369,-3200
-7404.8,-6415.6,20071.4,-5245.6,13219.4,-1869.6,-2377.4,-3199.2
-7396.7,-6409.3,20068.5,-5239.2,13216,-1857.1,-2377.2,-3199.2
-7380.9,-6396.7,20062.5,-5228.2,13208.9,-1837.8,-2371,-3198.8
-7350.1,-6377.6,20045.5,-5217.3,13178.8,-1816.1,-2364.9,-3212.8
-7337,-6371.5,20033.1,-5212.7,13153,-1796.6,-2349.3,-3218.8
-7345.2,-6382.2,20033.7,-5219.7,13149.4,-1810.9,-2343.2,-3219.7
-7358.1,-6389.4,20037.9,-5225.2,13149.3,-1827.8,-2345.2,-3218.6
-7382.1,-6401.5,20049.8,-5230.7,13153.7,-1848.2,-2349.8,-3216
-7389.7,-6407.9,20058,-5235.9,13161.8,-1862.1,-2363.1,-3215.6
-7386.1,-6404,20060,-5234.6,13165,-1857.4,-2369.4,-3215.3
-7376.7,-6394.1,20058.7,-5227.1,13163.4,-1841.3,-2366.1,-3211.8
-7360.8,-6381.4,20054.2,-5216.3,13155.6,-1817.5,-2356.1,-3206.6
-7351.7,-6374,20049.6,-5207.1,13149.6,-1799.4,-2342.8,-3199.5
-7354.2,-6376.5,20047.1,-5206.4,13148.3,-1800.2,-2335.6,-3195.8
-7361.4,-6385.6,20046.9,-5214.2,13146,-1819.3,-2339.7,-3200.5
-7360.7,-6394.5,20048,-5228.8,13134.8,-1840.6,-2351.4,-3212.8
-7368.8,-6407.9,20051.5,-5243.2,13133.6,-1857.4,-2365.2,-3220.5
-7373.9,-6409.2,20053.7,-5245.4,13135.7,-1861.7,-2374.8,-3220.5
-7367.7,-6400.5,20053.6,-5240.8,13136.6,-1848.3,-2373.1,-3215
-7360.1,-6391,20052.8,-5228.4,13139.3,-1831.4,-2365.2,-3206.5
-7351,-6381.7,20049.1,-5213.7,13138.1,-1811.6,-2352.6,-3198.6
-7348,-6380,20045.5,-5206.3,13136.5,-1801.3,-2341.1,-3194.7
-7357.5,-6387.4,20045.4,-5209.4,13138.9,-1814.2,-2340.9,-3196.8
-7374,-6395.6,20050.8,-5213.5,13152.9,-1830.7,-2345.6,-3193.9
-7386.9,-6406.2,20058.1,-5223.9,13165.6,-1852.6,-2357.1,-3196.8
-7393.1,-6413,20062.1,-5233.9,13170.5,-1868.7,-2371.2,-3205
-7386.6,-6407.1,20063.3,-5231,13173.3,-1863.2,-2377.4,-3206
-7385,-6406.1,20066.3,-5225.5,13183.6,-1850,-2371.5,-3200.4
-7373.1,-6390.4,20064.9,-5211.4,13186.1,-1825.9,-2358.9,-3190.7
-7365.3,-6380.3,20059.9,-5201.3,13182.3,-1807.8,-2343.7,-3186.1
-7369.7,-6384.2,20055.9,-5205.8,13182.4,-1810.4,-2336.6,-3186.4
-7383.5,-6394,20049.9,-5216.9,13195.2,-1824.3,-2339.8,-3184.7
-7393.1,-6402,20048.3,-5224.1,13201.6,-1841.4,-2348.5,-3188.4
-7400.7,-6410.9,20049.8,-5235.5,13201.3,-1862.9,-2363.4,-3198.6
-7396.4,-6409.9,20048.4,-5238.6,13197.6,-1867.9,-2375,-3206.4
-7370.3,-6397.7,20035.9,-5236.4,13170.5,-1859.6,-2383.8,-3226.6
-7350,-6384.9,20024.8,-5227.7,13144.3,-1831.1,-2373.2,-3231.7
-7341.5,-6376,20019.9,-5214.5,13137,-1806.9,-2353.2,-3221.8
-7343.4,-6372.5,20018.7,-5204.5,13134.2,-1797.1,-2336.6,-3213.3
-7359.2,-6378.9,20026.1,-5199.5,13136,-1804.9,-2327.2,-3206
-7367.9,-6388.6,20031.8,-5204.9,13143.1,-1821,-2333.7,-3204.9
-7378.2,-6401.4,20036.7,-5218.7,13147.8,-1846.2,-2347.8,-3212.7
-7381.3,-6406.8,20040.8,-5228.2,13150.3,-1861.3,-2363.1,-3218.8
-7374,-6401.3,20040.4,-5228.2,13145.7,-1853.9,-2368.3,-3221.1
-7368.1,-6394.9,20039.4,-5223,13142.6,-1839.5,-2363.4,-3219.2
-7359.4,-6383,20037.2,-5211.7,13140.6,-1819.8,-2352.3,-3211.9
-7350.2,-6376.3,20033.2,-5207.7,13135.1,-1801.8,-2338,-3205.4
-7343.8,-6379.1,20029.7,-5214.2,13121.8,-1800.1,-2329.8,-3209.2
-7347.7,-6388.4,20028.8,-5217.1,13119.3,-1809.1,-2330.5,-3212.1
-7359.6,-6402,20031.6,-5226.8,13122.6,-1830.1,-2338.4,-3217.2
-7370.1,-6410.6,20036.4,-5236.6,13127.7,-1852.7,-2352.5,-3222.2
-7374.4,-6410.5,20040.6,-5238.4,13133.5,-1859.2,-2363.3,-3221.9
-7372.2,-6402.7,20041.6,-5234.3,13135,-1852,-2366.3,-3219.5
-7362.2,-6392.6,20040.2,-5227.4,13134.2,-1832.4,-2360.4,-3212.9
-7353.2,-6381.9,20037,-5220.9,13134.5,-1806.8,-2345.9,-3203.1
-7358.7,-6378.1,20038.6,-5211.6,13146.6,-1795.3,-2330.9,-3190.1
-7367.7,-6385.2,20043.2,-5211.7,13158.5,-1811.3,-2330.3,-3188.3
-7374.6,-6395.2,20045.5,-5218.5,13163.5,-1829.2,-2338.3,-3193.4
-7383,-6407.2,20049.7,-5228.1,13168.8,-1849,-2350.5,-3200.5
-7394.3,-6419.3,20058.7,-5236.1,13183.2,-1866.9,-2362.5,-3203
-7391.6,-6414.4,20062.8,-5235.3,13189.4,-1864.9,-2369.3,-3202.6
-7384.2,-6406.3,20061.9,-5230.3,13187.5,-1851.2,-2367.4,-3202.1
-7375.1,-6397.3,20056.7,-5221.9,13186.4,-1829.9,-2358.3,-3196.9
-7373.5,-6390,20046.4,-5213.5,13196.5,-1808.3,-2344.3,-3184.5
-7375.3,-6386.9,20040.6,-5207.6,13200.6,-1801.8,-2333.2,-3179.4
-7383.5,-6393.7,20038,-5212.8,13199.1,-1813.8,-2333.3,-3184.3
-7390.3,-6403.1,20036.6,-5223.5,13196.3,-1832.9,-2342.7,-3195
-7382.4,-6409,20027.3,-5239.6,13171.7,-1857.5,-2364.1,-3225.2
-7370.6,-6407.7,20021.4,-5246.2,13148.4,-1855.5,-2371.9,-3239.6
-7363.2,-6404.3,20023.3,-5244.4,13144.6,-1850,-2367.9,-3238.8
-7353.5,-6391.6,20026.4,-5231.3,13142.9,-1839.3,-2360.1,-3232.3
-7351.4,-6378.2,20031.6,-5208.4,13142.2,-1813.3,-2339.9,-3216.9
-7348.8,-6376,20033.5,-5198.2,13146.9,-1801.7,-2329.5,-3207.6
-7354.1,-6383.2,20033.8,-5201.2,13149.4,-1808.4,-2328.9,-3208
-7359.4,-6389.5,20035.1,-5207.1,13150.5,-1822.4,-2335.3,-3212.3
-7363,-6398.6,20036.8,-5218,13147.9,-1840,-2347.5,-3221.5
-7370.5,-6409.9,20041.1,-5231.3,13147.4,-1859.6,-2362.5,-3230.3
-7368.5,-6405.4,20043.1,-5230.3,13147.6,-1857.3,-2369.4,-3230.5
-7360.8,-6399.7,20042.7,-5228.4,13144,-1848.8,-2368.1,-3230.7
-7340.5,-6388.4,20038.1,-5223.3,13128.8,-1826,-2358.3,-3229
-7330.4,-6381.1,20033,-5210,13121.9,-1802.3,-2343.5,-3221.2
-7333.6,-6382.4,20030.8,-5204.9,13121.6,-1801.8,-2334.8,-3217.3
-7338.8,-6389.6,20031.4,-5208.9,13124.3,-1815.1,-2336,-3216.5
-7347.4,-6401.8,20035.5,-5220.6,13130.4,-1831.1,-2343.3,-3217
-7359.3,-6412.4,20041.1,-5234.1,13134.6,-1858.8,-2359.9,-3224.5
-7362.5,-6413.3,20044.3,-5238.9,13135.9,-1867.8,-2373.1,-3227.9
-7359.3,-6406,20044.9,-5235,13137.5,-1856.8,-2374.7,-3224.6
-7362.2,-6397.9,20048.2,-5226.2,13149.8,-1841.5,-2367.7,-3211.9
-7355,-6384.9,20048.3,-5211.8,13158.2,-1821.4,-2355.2,-3198.8
-7349.9,-6380.3,20044.7,-5206.5,13158.8,-1810.2,-2344.6,-3194.4
-7351.2,-6384.7,20043,-5208.3,13160.4,-1811.5,-2338.3,-3193.1
-7361.6,-6396.9,20047.9,-5215.7,13173,-1827.8,-2339.7,-3192.9
-7372.8,-6408.7,20053.1,-5228.5,13180.6,-1853.5,-2351.6,-3198.9
-7378.2,-6415.3,20055.8,-5238.5,13180.7,-1870.3,-2366.4,-3207.4
-7377.8,-6413.9,20054.6,-5242.4,13181.2,-1868.6,-2373.7,-3210.2
-7379.5,-6410.8,20048,-5241.4,13192.5,-1857.1,-2372.6,-3202.8
-7370,-6396.4,20041.9,-5226.4,13195.5,-1834.3,-2362.8,-3193.3
-7359.8,-6385.1,20035.6,-5213.8,13190.5,-1813.2,-2349.4,-3188.9
-7353.4,-6382.8,20030,-5211.4,13184.5,-1808.5,-2341.3,-3192
-7338.3,-6382.1,20017.8,-5221.4,13158.3,-1821.8,-2349.6,-3215.9
-7336,-6390.5,20011,-5231,13136,-1828.8,-2352.7,-3230.9
-7350.2,-6407.9,20015.6,-5242.7,13135,-1852.6,-2360.1,-3237.4
-7357.9,-6413.6,20021.3,-5244.5,13135.4,-1864.6,-2368.3,-3237.5
-7363.3,-6409,20029.3,-5231.8,13136.8,-1851.1,-2362.6,-3226.4
-7358.6,-6402.9,20032.8,-5222.7,13142.4,-1837.6,-2358.6,-3217.1
-7346.4,-6388.6,20030.1,-5210.1,13142.5,-1813.9,-2347.6,-3207.9
-7338.6,-6382,20027,-5203.7,13141.2,-1800.3,-2336.3,-3203.2
-7337.6,-6386.1,20025.1,-5207.4,13136.7,-1803.4,-2332.3,-3205.4
-7343,-6393.5,20025.4,-5215.4,13134.7,-1816.4,-2334.1,-3209.8
-7354.8,-6405.4,20029.1,-5227.8,13137.1,-1839.9,-2344.3,-3217.2
-7361.4,-6415.2,20033.6,-5242.1,13136.4,-1863.5,-2360.2,-3226.5
-7351.2,-6409.6,20034.7,-5246.9,13124.4,-1863.9,-2370,-3233.8
-7345.7,-6407.4,20034,-5242.3,13120.3,-1847.8,-2367.3,-3231.4
-7337.6,-6398.9,20032.6,-5233.5,13120.4,-1829.1,-2357.3,-3223.3
-7329.8,-6386.4,20029.7,-5218.1,13120.4,-1808.5,-2344,-3212.9
-7328.6,-6385.5,20028.5,-5211,13123.9,-1799.3,-2333.3,-3204.4
-7334.6,-6394.3,20029.8,-5218.6,13126.9,-1812.4,-2332.6,-3204.2
-7345,-6405,20032.9,-5227.5,13130,-1833.4,-2340,-3209
-7356.9,-6417.6,20037.9,-5241.1,13135.8,-1856.5,-2352.6,-3214.6
-7370.9,-6423.1,20046.6,-5249.4,13151.9,-1871.8,-2363.7,-3211.9
-7371.5,-6416.8,20051.9,-5247,13163.2,-1868.3,-2367.9,-3207.3
-7363.1,-6407.3,20051.1,-5240,13164.9,-1852.8,-2365.5,-3204.2
-7349.6,-6395,20047.5,-5226.2,13164.6,-1825.8,-2353.3,-3196.3
-7346.9,-6391.8,20047.1,-5215.7,13173.8,-1808.4,-2336.4,-3186.1
-7352,-6395.6,20048.7,-5218.1,13179.8,-1818.2,-2331.6,-3185.3
-7355.2,-6398.4,20049,-5222.9,13179.7,-1830.3,-2335.9,-3190.4
-7369.8,-6413.1,20050.9,-5238.7,13183.9,-1855,-2348.2,-3200.7
-7386,-6426.7,20050.4,-5255.4,13199.7,-1878.5,-2366.1,-3204.2
-7382.9,-6420.1,20048.9,-5251.9,13205.2,-1873.3,-2373.6,-3202.7
-7375.8,-6412,20045.9,-5244.5,13201.7,-1856.6,-2371.1,-3202.5
-7362.5,-6398.9,20040.8,-5233.5,13195.3,-1838.8,-2363.9,-3202.5
-7332.4,-6378.9,20024.7,-5223.9,13166.2,-1819,-2359.2,-3216.5
-7321.1,-6374.3,20013.5,-5222.4,13141,-1801.9,-2346.4,-3223.4
-7331.3,-6385.8,20014.5,-5227,13137.8,-1815.8,-2340.8,-3225.1
-7343.8,-6396,20019.8,-5229.7,13138.9,-1833.9,-2343.1,-3225.4
-7365.4,-6410.3,20031.8,-5231.6,13143.3,-1853.4,-2347.5,-3224.7
-7371.4,-6419.6,20040.2,-5235.4,13151.1,-1866.7,-2361.6,-3224.8
-7366.9,-6415.6,20042,-5233.3,13153.5,-1857,-2366.4,-3222.6
-7358.1,-6406.1,20040.9,-5227,13152.1,-1842.5,-2363.1,-3219.9
-7340.9,-6390.5,20036,-5214.8,13144.4,-1819.1,-2352.2,-3216.3
-7331.4,-6382.9,20031.9,-5207.1,13139.2,-1799.6,-2336.7,-3211.6
-7337.3,-6386.1,20030,-5209.4,13138.5,-1801.4,-2329,-3210.5
-7343.7,-6394.6,20031.4,-5220.4,13136.9,-1819.8,-2333.7,-3216.6
-7346.5,-6403.8,20033.2,-5238,13127.1,-1842,-2345.7,-3229.5
-7356,-6414.5,20037.2,-5249.2,13127,-1860.5,-2359.2,-3236.7
-7355.6,-6417.4,20040.9,-5252.4,13130.1,-1864.5,-2368.3,-3236.8
-7350.1,-6408.3,20041.6,-5244.7,13132.1,-1853,-2368.6,-3231.3
-7341.9,-6396.5,20040.8,-5231.3,13135.2,-1832.7,-2359.6,-3221.2
-7333.4,-6387.2,20037.9,-5221,13134.8,-1815.1,-2345.3,-3213.1
-7331.2,-6384.2,20035.2,-5217,13134.1,-1806.7,-2332.9,-3208.7
-7339.4,-6390.6,20036.1,-5221.4,13137.5,-1817.8,-2330.5,-3209.7
-7358.1,-6400.4,20043.1,-5227.9,13153.2,-1835.4,-2335.1,-3206.7
-7373.1,-6412,20051.4,-5239.1,13167.1,-1862.5,-2350.5,-3210.7
-7378.8,-6418.1,20055.3,-5247.4,13171.4,-1877.7,-2367.5,-3218.6
-7373.8,-6412.6,20056.6,-5243.6,13173.5,-1870.2,-2373.2,-3218
-7371.6,-6406.5,20059.3,-5236.5,13183.5,-1853.5,-2365.5,-3209.5
-7362.4,-6397.9,20059.3,-5228.3,13187.7,-1834.9,-2354.7,-3201
-7352.1,-6390.1,20055.6,-5220.3,13184.4,-1814.7,-2341.7,-3195.8
-7356.1,-6393.8,20052.1,-5220.4,13184.6,-1813.9,-2334.1,-3196
-7370.6,-6403.6,20047.4,-5228.4,13198.2,-1828.7,-2335.7,-3194.1
-7379.1,-6409,20046.2,-5234.2,13204.6,-1844.1,-2341.9,-3197.7
-7390.6,-6421.3,20048.6,-5248.1,13205,-1869.4,-2355.4,-3209
-7385.2,-6418.1,20048,-5248.5,13201.4,-1873.3,-2367.6,-3216.9
-7360.2,-6408.1,20036.1,-5247.8,13175,-1864.6,-2376.8,-3237.4
-7338.3,-6394.1,20025.1,-5241.2,13149.2,-1834.8,-2366.8,-3241.9
-7330.9,-6384.8,20020.8,-5229,13142.2,-1810.1,-2345.5,-3232.4
-7332.5,-6382,20020.4,-5218.9,13139.3,-1802.8,-2329.5,-3224.9
-7348.5,-6389,20027.4,-5211,13140.8,-1806.9,-2319.2,-3216.7
-7360.7,-6402.9,20033.6,-5216,13148.7,-1825.2,-2326.7,-3215.9
-7370.9,-6415.5,20038.5,-5227.8,13153.1,-1849.9,-2342.7,-3222.9
-7373.1,-6419.6,20042.3,-5235.2,13154.7,-1863.8,-2358.2,-3228.1
-7365.8,-6413.3,20042.5,-5234.5,13150.2,-1859.3,-2365.4,-3230.7
-7357.3,-6406.8,20041.4,-5228.9,13146.7,-1841.6,-2361.7,-3226.6
-7346.5,-6395.5,20038.3,-5217.9,13144,-1819.8,-2350.2,-3217.9
-7337.6,-6387.5,20034.5,-5211.1,13138.4,-1805.3,-2336.5,-3212.9
-7331.3,-6387.2,20031.4,-5217.1,13125.1,-1807.3,-2329.7,-3217.5
-7337.7,-6395.3,20031.2,-5222.1,13122.9,-1818.6,-2331.9,-3220.6
-7349,-6408.4,20034.1,-5232.6,13126.8,-1839.1,-2341.7,-3225.1
-7358.6,-6417.8,20038.7,-5243.1,13131.7,-1861.2,-2356,-3230.1
-7360,-6417.6,20043.1,-5244.5,13137.4,-1866.4,-2365.9,-3229.6
-7356.1,-6411.4,20044,-5241.1,13138.4,-1858,-2367.1,-3226.4
-7349,-6401.4,20042.1,-5232.6,13137.3,-1839.7,-2360,-3219.9
-7342.1,-6388.7,20038.9,-5220.2,13137.5,-1816.7,-2345.6,-3211.1
-7350,-6386,20039.8,-5211.8,13149.5,-1806.7,-2331.3,-3198.9
-7360.3,-6395.2,20044.3,-5215.5,13161,-1823.1,-2331.4,-3197.4
-7363.9,-6402.6,20046.2,-5222,13164.9,-1836.1,-2337.8,-3201.7
-7372.3,-6412.2,20048.7,-5234.4,13168.5,-1853.4,-2348.6,-3208.7
-7382.8,-6423.2,20055.2,-5244,13181.5,-1867.7,-2359.1,-3210.6
-7380.6,-6421.2,20058.8,-5240.6,13187.8,-1865.3,-2364.3,-3208.1
-7374.8,-6413.3,20058,-5234.8,13185.4,-1854.7,-2364.4,-3206.6
-7366.9,-6401.6,20051.7,-5225.6,13182.7,-1830.5,-2355.9,-3200.7
-7364.5,-6394.9,20041.3,-5216.8,13191.7,-1810,-2343,-3188.5
-7367.7,-6394.1,20035.9,-5213.4,13195.9,-1808.3,-2333.8,-3184
-7371.6,-6398.8,20034.3,-5220,13194.6,-1823.3,-2336.6,-3189
-7374.8,-6406.4,20032.9,-5229.5,13191.4,-1841,-2345.6,-3198.5
-7364.5,-6411.9,20024.7,-5244.7,13167.3,-1867.2,-2368.6,-3227.1
-7356.7,-6410.3,20019.2,-5250.8,13144.8,-1866.1,-2377.9,-3240.4
-7355.9,-6407.6,20019.7,-5248.8,13140.7,-1854.1,-2372.1,-3235.3
-7349.6,-6401.7,20020.1,-5241.3,13137.7,-1834.4,-2359.7,-3223.5
-7350.4,-6390.3,20024.2,-5218.7,13136.2,-1810.3,-2337.5,-3206.6
-7349.7,-6386.7,20025.8,-5206.3,13141.1,-1802.7,-2326,-3196.9
-7354.8,-6391.3,20026.1,-5207.3,13143.7,-1811.9,-2325.4,-3197
-7359.9,-6399.7,20027.7,-5212.9,13145.3,-1824.4,-2331,-3199.6
-7367.2,-6413.1,20030.6,-5225.7,13143.5,-1846.8,-2343.5,-3209.1
-7372.4,-6420.7,20034.6,-5235,13143.3,-1864.6,-2357.3,-3217.7
-7369.7,-6418.9,20037.2,-5236,13144.3,-1862.4,-2364.3,-3218.7
-7361.7,-6413.5,20037.1,-5234.2,13140.9,-1850.5,-2362.7,-3217.4
-7343,-6400.3,20032.5,-5227.7,13125.8,-1827.7,-2352.9,-3216.1
-7334.2,-6391.2,20027.4,-5215.9,13119.6,-1803.7,-2338.2,-3209.3
-7336.5,-6393.2,20025.3,-5213.5,13119.8,-1802.7,-2330.1,-3205.8
-7341.7,-6397.7,20025.5,-5218.8,13122.1,-1814.9,-2331.4,-3205.5
-7351.8,-6406.8,20028.6,-5230.4,13127.6,-1833,-2339.2,-3207
-7362.4,-6418.7,20033.3,-5246.3,13131.7,-1856.5,-2353.3,-3213.2
-7364.2,-6424,20036.2,-5254.9,13134,-1863,-2364,-3216.1
-7361.3,-6421.2,20036.1,-5252.9,13136.1,-1850.9,-2364.5,-3213
-7363.1,-6412.4,20038.4,-5240.4,13148.1,-1836.4,-2357.6,-3200.8
-7356.9,-6397.4,20038.4,-5224.6,13156.1,-1821,-2347,-3190.2
-7351.3,-6390.3,20035,-5214,13156.9,-1809.1,-2337.7,-3186.3
-7353.1,-6397.8,20034.2,-5212,13158.7,-1812.4,-2334.4,-3186.8
-7364.4,-6413.1,20039.2,-5216.2,13171.3,-1828.3,-2337.4,-3186.2
-7376.2,-6424.9,20045.3,-5226.8,13179.7,-1853.1,-2350.1,-3192
-7382.5,-6430.8,20049,-5237.3,13181.1,-1871.1,-2366.2,-3200.8
-7382.1,-6429.5,20048.6,-5241.1,13182.3,-1871.2,-2375.1,-3204.2
-7383.4,-6424.1,20042.9,-5241.5,13194.8,-1861,-2374.4,-3197
-7371,-6404.5,20036.5,-5228.7,13197.7,-1834.7,-2362.6,-3186.3
-7360.6,-6390.5,20029.6,-5217.9,13192.9,-1810.4,-2345.3,-3180.3
-7358.2,-6389.3,20024,-5216.4,13187.7,-1810.9,-2338.7,-3184.2
-7343.6,-6388.1,20011.5,-5222.2,13161.1,-1826,-2349.2,-3208.7
-7342.4,-6396.5,20004.8,-5229.8,13138.2,-1835.8,-2355.7,-3224.8
-7355.9,-6412.9,20008.9,-5241.3,13136.1,-1858.2,-2364.4,-3230.1
-7363.5,-6416,20014.9,-5242.6,13136.7,-1869,-2372.2,-3228.9
-7369.2,-6410.3,20023.8,-5230.4,13138.4,-1856.3,-2366,-3218.3
-7365.4,-6404.3,20027.9,-5221.4,13144,-1843.4,-2362.5,-3209.2
-7352.7,-6391.3,20024.7,-5207.1,13143.6,-1817.8,-2351.5,-3199.1
-7344.4,-6385.7,20021,-5199.1,13141.7,-1803,-2338.8,-3191.9
-7344.9,-6390.9,20018.8,-5201.2,13136.8,-1807.7,-2334.4,-3193.9
-7350.7,-6399.3,20019.9,-5206,13135.8,-1823.3,-2337.4,-3198.8
-7362.7,-6410.8,20024.7,-5217.8,13139.3,-1848.3,-2349.4,-3206.6
-7368.3,-6420.5,20029.7,-5239.2,13139.6,-1869.6,-2365.1,-3215.3
-7357.1,-6417.7,20030.3,-5254.4,13127.9,-1866.2,-2371.7,-3221.3
-7350,-6413.6,20029.1,-5248.8,13124.7,-1850,-2368.6,-3217.7
-7342.4,-6403.1,20026.3,-5232.8,13124.3,-1829.7,-2359.8,-3209.2
-7336.1,-6390,20021.5,-5217.9,13123.8,-1806.1,-2345.4,-3199
-7336.6,-6389,20020.4,-5212,13127.2,-1801.3,-2334.6,-3193
-7343.7,-6395.4,20022.4,-5216.9,13130.3,-1819,-2335.3,-3196.1
-7353.3,-6403.4,20025.6,-5225.1,13133.1,-1840.1,-2343,-3202.8
-7367.3,-6417.9,20030.8,-5238.9,13139.1,-1863.9,-2357.3,-3209.8
-7378.8,-6423.8,20039.2,-5242.1,13155.1,-1873.4,-2367.6,-3206.2
-7377.2,-6420.6,20043.9,-5238.5,13165.9,-1866.6,-2371.4,-3201.5
-7367.8,-6410.9,20042.6,-5234.1,13167.5,-1849,-2368.9,-3199.2
-7355.8,-6397.8,20038.3,-5222.7,13166.8,-1821.7,-2356.3,-3191.9
-7356.3,-6396.3,20037.3,-5213.3,13175.6,-1803.9,-2338.5,-3181.6
-7364.4,-6402.9,20037.7,-5214.5,13180.7,-1810.6,-2332.4,-3179.2
-7373.2,-6412.9,20037.8,-5220.2,13180.2,-1826,-2337.5,-3184.8
-7382.2,-6424.5,20039.1,-5232.1,13182.8,-1848.8,-2350.4,-3193
-7394,-6432.7,20038.2,-5245.1,13198,-1869.3,-2365.3,-3195.4
-7390.6,-6426.2,20039.3,-5243.9,13204.8,-1874.3,-2374.9,-3196.8
-7379.3,-6414.2,20036.8,-5236.5,13201.9,-1861,-2374,-3197.1
-7362.4,-6403.4,20030.5,-5226.7,13195.3,-1843.1,-2366.9,-3197.7
-7328.4,-6385.4,20013.4,-5217.2,13165.4,-1820.6,-2358.8,-3211.6
-7316.8,-6382,20002.4,-5214.7,13139.8,-1807,-2345.8,-3220.2
-7327.5,-6391.7,20003.3,-5218.7,13136.6,-1819.8,-2340.9,-3221.5
-7342.3,-6402,20008.4,-5223.9,13137.4,-1838.6,-2344.5,-3222.5
-7363.4,-6413.4,20021.1,-5228.3,13142.3,-1858.6,-2349.2,-3221.6
-7368.1,-6419.2,20030.5,-5233.8,13151.1,-1873.5,-2362.9,-3222.2
-7360.7,-6414.7,20033.9,-5231.7,13153.7,-1867.2,-2369.7,-3221.1
-7348.8,-6406.6,20033.7,-5224.1,13152.5,-1851,-2367.7,-3216.7
-7332.6,-6393.6,20029.9,-5211.7,13145.5,-1827.2,-2357.7,-3211.4
-7324.2,-6388.7,20025.7,-5203.8,13140.7,-1807.5,-2342.9,-3205.4
-7328.4,-6393.6,20025.2,-5207.1,13140.8,-1813.3,-2336.2,-3205.7
-7334.4,-6402.4,20026.4,-5217.5,13139.3,-1832.1,-2341.8,-3211.6
-7338.1,-6412.9,20027.1,-5238,13128.3,-1849.7,-2352.6,-3222.5
-7346.6,-6424.4,20030,-5249,13126.8,-1863.1,-2364,-3227.3
-7347.7,-6428,20032.9,-5248.6,13128.8,-1867.2,-2372.7,-3226.9
-7344,-6422.2,20033.7,-5237.8,13130.4,-1855.4,-2372.6,-3220.6
-7336.5,-6411.4,20033.4,-5221.2,13132.9,-1836.2,-2364.5,-3209.3
-7328.5,-6403.2,20030.3,-5212,13132.3,-1816.9,-2351,-3200.2
-7326.7,-6399.6,20027.1,-5207.8,13130.9,-1807.5,-2339.1,-3195.2
-7335.1,-6403.5,20028.2,-5213.4,13134.1,-1821.3,-2338.8,-3196.4
-7356.3,-6411.5,20035,-5220.5,13150.3,-1841,-2344.1,-3193.2
-7370.2,-6425.1,20042.9,-5233.9,13164.1,-1867.2,-2358.7,-3196.5
-7374,-6429.4,20046.8,-5242.9,13168.4,-1879.9,-2373.5,-3203.1
-7367.3,-6423.9,20047.8,-5240.4,13170.2,-1868.4,-2376.9,-3201.8
-7363.4,-6419.7,20050.7,-5233.6,13180.8,-1851.8,-2369.8,-3194
-7354.1,-6407.6,20050,-5223.2,13184.2,-1831.5,-2358.1,-3186.1
-7345.8,-6398.5,20045.8,-5216.3,13180.6,-1814.7,-2345,-3182.7
-7348.9,-6400.3,20041.6,-5224.8,13179.8,-1817,-2340.2,-3184.2
-7361.3,-6409.4,20035.1,-5233.9,13192.1,-1825.8,-2340.8,-3181.7
-7373.5,-6422.1,20034.7,-5239.8,13198.8,-1847.9,-2348.7,-3186.9
-7380,-6431,20036.1,-5246.7,13198.5,-1867.8,-2362.7,-3196.5
-7375.6,-6427.5,20034.6,-5245.5,13194.7,-1869.2,-2373.7,-3203.8
-7352.6,-6415.6,20022.7,-5243.6,13168.2,-1861.1,-2382.4,-3224.2
-7332.8,-6401.4,20011.6,-5234.2,13142.4,-1832.5,-2374,-3228.5
-7327.1,-6393.8,20007.3,-5221.8,13135.5,-1810.5,-2355.4,-3218.7
-7328.4,-6390.7,20005.8,-5211.8,13131.7,-1799.9,-2339.8,-3208.1
-7346.6,-6399,20012.8,-5208.4,13132.8,-1808.1,-2329.9,-3199.6
-7357.9,-6410.5,20018.9,-5214.3,13140.8,-1826.8,-2337.1,-3198.4
-7368.8,-6424.5,20024.6,-5227.2,13146.8,-1850.3,-2352,-3204.9
-7371.3,-6429.3,20029,-5236.1,13149.4,-1864.3,-2366.2,-3209.9
-7362.5,-6421.2,20029.2,-5237.3,13144.7,-1857.8,-2370.9,-3212
-7352.7,-6411.6,20027.8,-5235.4,13140.3,-1841.8,-2366.4,-3209.7
-7341.5,-6399.9,20024.8,-5226.4,13137.7,-1819.1,-2353.6,-3201.9
-7332.9,-6392.4,20021.3,-5219.2,13132.5,-1806,-2340.9,-3198.1
-7327.7,-6396.7,20018.2,-5221.9,13118.6,-1809.4,-2336,-3202.6
-7333.3,-6408.4,20017.6,-5223.7,13116.2,-1820.1,-2336.9,-3204.5
-7344.6,-6421.4,20021.4,-5231.7,13119.9,-1844.2,-2345.9,-3209.6
-7354.4,-6430.1,20026.6,-5240.9,13125.1,-1867.6,-2362,-3215.3
-7355.5,-6427.3,20030.5,-5240.2,13130.3,-1870.5,-2372.4,-3213.7
-7353.1,-6420.6,20032.1,-5237.1,13132.4,-1864,-2372.4,-3211.5
-7344.1,-6411.3,20030,-5229.9,13131.7,-1844.6,-2365.5,-3205.4
-7336.4,-6400.1,20027,-5219.2,13131.8,-1819.5,-2351,-3196.4
-7343.5,-6396.8,20028.5,-5210.5,13144.4,-1808.2,-2334.4,-3183.4
-7352.4,-6402.7,20031.9,-5213.4,13155.4,-1821.5,-2332.3,-3180.1
-7359.8,-6413.3,20033.9,-5226.4,13160.4,-1836.8,-2338.1,-3185.4
-7367.8,-6427.6,20038,-5239.8,13165.8,-1858.1,-2351.3,-3192.9
-7377.3,-6442.3,20045.6,-5245.4,13179.9,-1871,-2361.6,-3194.6
-7374.5,-6439.6,20049.2,-5241.8,13186.1,-1867.9,-2368,-3193.1
-7367.5,-6430.3,20048,-5236.9,13183.7,-1855.6,-2366.7,-3192.7
-7356.9,-6415.6,20042.3,-5224.1,13181.9,-1831.6,-2356.6,-3186.4
-7358,-6412,20032.5,-5219,13192.7,-1812.9,-2342.8,-3174.1
-7359,-6413.4,20027.9,-5219.1,13197.5,-1812.5,-2335.6,-3169
-7362.9,-6419,20026.4,-5223.7,13195.5,-1826.5,-2338.9,-3173.4
-7367.4,-6425.8,20025.9,-5232.1,13192.2,-1846.8,-2350.6,-3184.7
-7357.3,-6428.5,20018,-5246.8,13167.9,-1873.1,-2374.5,-3214.1
-7346.9,-6423.3,20012.1,-5251.9,13144.8,-1868.5,-2382.3,-3226.1
-7345.8,-6419.6,20013.1,-5248.3,13140.4,-1858,-2376.3,-3222.4
-7342.5,-6410.6,20014.7,-5237.1,13138.1,-1843.5,-2365.2,-3212.7
-7340.1,-6398.3,20019.6,-5216.7,13137.6,-1816.3,-2343.7,-3194.7
-7337.4,-6396.7,20021.9,-5209.9,13142.6,-1807.5,-2333.3,-3184.6
-7343.1,-6403.7,20022.6,-5214.9,13145.2,-1818.3,-2334.3,-3185
-7348.2,-6411,20023.7,-5221,13145.8,-1831.7,-2340.6,-3188.2
-7355.2,-6421.5,20026.5,-5232.5,13143.7,-1853.5,-2353.2,-3197.7
-7358.6,-6428.9,20030.9,-5241.7,13143.2,-1871.2,-2366.9,-3204.4
-7355.1,-6427.2,20033.5,-5242.2,13144.7,-1869.3,-2371.8,-3203.8
-7347.3,-6422.7,20033.2,-5240.4,13141.3,-1857.8,-2369.2,-3202.1
-7328.6,-6409.9,20029.1,-5234,13126.2,-1835.8,-2359.3,-3200.6
-7319.7,-6402.3,20024.1,-5221.4,13120.8,-1812.9,-2343.9,-3192.9
-7322.2,-6406.5,20023,-5219.2,13122.1,-1816.5,-2336.9,-3190.3
-7328.3,-6410.7,20024.7,-5221.7,13125.2,-1829.6,-2340.6,-3189.6
-7341,-6420.4,20028.7,-5229.7,13132.1,-1846,-2348.9,-3189.5
-7352.3,-6431.9,20034.6,-5244,13136.8,-1871.6,-2364.4,-3195.2
-7354.9,-6433.3,20039.3,-5250.3,13139.5,-1879.6,-2376.6,-3197.2
-7353.8,-6427.8,20040.8,-5248.3,13142.2,-1870.5,-2378.8,-3193.3
-7355.7,-6417.8,20043.1,-5236.8,13153.6,-1853.1,-2370.6,-3178.7
-7349.2,-6407.8,20043.7,-5222.2,13162,-1834.7,-2358.6,-3167.3
-7343,-6402.8,20041.2,-5213.8,13163.1,-1822.5,-2348.1,-3163.7
-7347.7,-6407.3,20041.6,-5216,13166,-1830.5,-2346.1,-3165.3
-7357.8,-6418.7,20047.2,-5226.4,13179.1,-1842.5,-2348.4,-3164.3
-7371,-6430.5,20054.4,-5240.5,13188,-1869.3,-2361.5,-3171.1
-7376,-6435.9,20058.6,-5247.6,13189.3,-1885.3,-2377.4,-3179.7
-7375,-6434.6,20057.5,-5248.6,13190.3,-1880,-2384.6,-3181.3
-7376.9,-6431.1,20051.4,-5246.6,13202.2,-1866.8,-2382.3,-3172.9
-7366.1,-6416,20045.5,-5231.2,13204.3,-1844.4,-2371.9,-3163
-7356.1,-6403.3,20039,-5218,13198.8,-1820.9,-2355.5,-3156.9
-7354.3,-6403.7,20033.9,-5217,13194.2,-1821.6,-2348.5,-3160.6
-7337.4,-6401.6,20022.3,-5224.9,13167.8,-1837.5,-2359,-3184.2
-7335,-6408.4,20015.6,-5236.7,13145.9,-1844.4,-2362.4,-3199.8
-7349.1,-6424,20021.1,-5253.5,13145.3,-1871.7,-2372.8,-3207.2
-7353.9,-6425.8,20027.1,-5257.5,13145.8,-1879.3,-2379.7,-3206.9
-7360.5,-6419.4,20035.2,-5245,13146.6,-1865.1,-2372.1,-3196.6
-7356.5,-6413.1,20038.4,-5232.6,13151.5,-1851.7,-2367.4,-3187.1
-7344.8,-6400.7,20035.4,-5215.1,13150.8,-1827,-2356.6,-3177.5
-7337.1,-6396.2,20032.4,-5208.1,13149.5,-1812.3,-2344.7,-3169.7
-7337.8,-6401.2,20031.1,-5213.1,13145,-1818.8,-2341.7,-3171.1
-7344.7,-6409.3,20032.9,-5221.2,13143.8,-1836.2,-2347.5,-3175.5
-7357.3,-6422.4,20037.6,-5234.4,13146.7,-1859.1,-2360,-3181.3
-7363.8,-6433.7,20042.2,-5249.8,13146.7,-1878.4,-2376.1,-3188.6
-7352.7,-6429.7,20042.8,-5256,13134.3,-1877,-2384.8,-3194.2
-7345,-6422.5,20041.7,-5247.7,13130.4,-1859.6,-2380.9,-3191.1
-7336.4,-6413,20040,-5235.6,13130.8,-1840.9,-2371.6,-3183.2
-7326.8,-6400.5,20037.4,-5220.2,13131.3,-1820.2,-2358.3,-3173.6
-7328.2,-6403.2,20037.4,-5214,13135.5,-1815.1,-2348.4,-3168.5
-7335.2,-6413.7,20039.5,-5220.5,13138.4,-1831.6,-2349.4,-3170.4
-7342.2,-6424.3,20042.8,-5232.3,13140.5,-1849.7,-2356.9,-3174.8
-7358.9,-6434.1,20047.4,-5245,13145.8,-1871.4,-2370.4,-3180.5
-7374.9,-6435.7,20055.1,-5248.7,13161.6,-1882.7,-2380,-3177.3
-7373.9,-6428.8,20060,-5244.3,13172.4,-1876.8,-2382.5,-3172.8
-7365.2,-6420.6,20059.2,-5238.1,13173.8,-1859.8,-2378,-3170.6
-7352.4,-6406.3,20056.3,-5225,13174.2,-1835.7,-2365.9,-3164.1
-7351.3,-6402.5,20057.3,-5214.7,13184.5,-1820,-2349.1,-3153.8
-7356.2,-6407.6,20060,-5217.3,13191.3,-1830.4,-2346.3,-3152.4
-7360.9,-6414.3,20061,-5223.4,13191.8,-1844.3,-2352.7,-3157.4
-7375.7,-6429.8,20063.5,-5239.1,13195.7,-1869.1,-2364.8,-3166.9
-7391.1,-6439.1,20063.2,-5254.1,13211.5,-1889.2,-2379.8,-3169.4
-7387.8,-6433.5,20062.6,-5252.9,13217.1,-1886.9,-2386.4,-3168.2
-7379.4,-6424.1,20060.4,-5246.8,13213.9,-1872.8,-2384.4,-3167.5
-7362.8,-6408.3,20054.6,-5233.4,13207.3,-1849.6,-2375.8,-3165.8
-7333.1,-6390.5,20038.9,-5221.9,13178.7,-1828.2,-2367.9,-3179.8
-7323.6,-6390.4,20029.8,-5221.2,13155.1,-1818.3,-2356.5,-3188.4
-7331.6,-6398.1,20031.5,-5225.4,13151.8,-1830.3,-2352,-3189.3
-7343.7,-6407.5,20037.9,-5232.2,13153.3,-1850.4,-2355.8,-3191.2
-7364.9,-6418,20051.5,-5237.3,13158.4,-1871.6,-2362.8,-3191.1
-7372,-6422.1,20060.8,-5241.6,13167.4,-1883.7,-2377.1,-3191.6
-7366.9,-6418.9,20064.4,-5241,13171.2,-1876.1,-2382.6,-3189.6
-7355.4,-6408.1,20064.9,-5233,13170.6,-1861.6,-2381,-3184.7
-7338.4,-6391.5,20061.2,-5219.3,13164,-1836.2,-2369.4,-3179.5
-7328.9,-6384.3,20059.4,-5211,13159.7,-1823.4,-2356.5,-3175.6
-7332,-6387.2,20060.3,-5212.1,13159.7,-1830.6,-2352.9,-3176.5
-7338.5,-6393.2,20062.3,-5220.4,13158.2,-1847.9,-2358.2,-3183.4
-7341.4,-6401.8,20065.8,-5236.8,13148.6,-1873.2,-2372.2,-3198.9
-7348.9,-6408.1,20070.3,-5244.1,13147.6,-1891.5,-2387.6,-3207.3
-7349,-6407.8,20074.3,-5247.6,13150.2,-1891.9,-2395.1,-3206.7
-7342.5,-6398.4,20076.5,-5241.6,13151.8,-1880.4,-2394.3,-3202.1
-7332.5,-6384.5,20077.2,-5227.3,13154.9,-1860.8,-2386.4,-3193.4
-7322.9,-6372.5,20075.7,-5215.1,13154.7,-1842.6,-2374.4,-3186.6
-7320.3,-6369.2,20074.9,-5209.9,13153.9,-1838.8,-2365.8,-3185.2
-7327.3,-6373.2,20077.8,-5212.6,13157.3,-1854.1,-2368.2,-3188.4
-7345.1,-6382,20085.8,-5218.1,13172.3,-1873.9,-2375.4,-3187.6
-7360.8,-6392.9,20095.2,-5228.3,13186,-1901.6,-2391.3,-3193.6
-7363.9,-6395.6,20100.9,-5237.3,13191.3,-1915.1,-2407.5,-3201.7
-7353.6,-6385.8,20103.9,-5235.5,13193.5,-1904.7,-2411.8,-3201.7
-7347.8,-6376.1,20107.3,-5223.4,13203.6,-1887.2,-2404.5,-3193.7
-7336.9,-6362.3,20107.1,-5208.4,13207.1,-1865.1,-2391.5,-3184.4
-7331.6,-6354.1,20104.9,-5200.1,13205,-1854.1,-2381.1,-3181.7
-7337.4,-6359.7,20103.3,-5203.5,13206.1,-1860.5,-2378.6,-3184.2
-7348.8,-6370,20099.8,-5211.9,13219.8,-1873.6,-2382.8,-3183.2
-7359.2,-6378.2,20101.4,-5221,13227.2,-1894.6,-2392.9,-3190
-7365.7,-6384.3,20104.9,-5230.3,13227.9,-1916.4,-2409.1,-3202
-7358.1,-6379,20104.8,-5229.9,13223.8,-1915.4,-2419.5,-3209.9
-7333.1,-6366.6,20093.2,-5228.1,13196.7,-1904.7,-2425,-3230.6
-7311.1,-6351.8,20083.1,-5218.8,13170.3,-1877.7,-2414,-3236
-7302.2,-6339.9,20080.1,-5208.1,13163.3,-1854.9,-2393.7,-3226.1
-7303.3,-6337.1,20081.1,-5204.4,13160.8,-1847.9,-2378.1,-3217.6
-7318.8,-6343,20089.6,-5205.2,13162.6,-1854.4,-2368.8,-3210.4
-7330.4,-6354.9,20097.2,-5214.8,13170.4,-1871.7,-2375.3,-3209.7
-7342.3,-6369.2,20103.8,-5228.7,13176.1,-1897.4,-2391,-3216.7
-7344.1,-6372.2,20108.6,-5233.5,13178.4,-1907.5,-2405,-3220.8
-7336.5,-6367.2,20109.6,-5229.7,13174.3,-1897.7,-2408.7,-3220.7
-7329.3,-6363.4,20109.1,-5222.6,13170.8,-1882.6,-2404.3,-3216.7
-7318.7,-6353,20106.7,-5208,13168.6,-1859.5,-2392.5,-3207.3
-7312.2,-6348.7,20103.3,-5198.8,13163.3,-1844.5,-2379.2,-3202
-7306.3,-6354.6,20100.3,-5205.3,13150,-1845.2,-2371.7,-3205.4
-7312,-6365.6,20101.1,-5216.4,13148.4,-1854.6,-2370.8,-3206.8
-7325,-6376.6,20105.4,-5231.7,13153.1,-1877.9,-2379.7,-3211.8
-7333.7,-6384.8,20110.5,-5243.7,13157.9,-1895.7,-2393.8,-3215.1
-7334.4,-6385.9,20114.8,-5242.5,13163.7,-1896.4,-2402.7,-3212.9
-7329.3,-6383.1,20115.9,-5235.1,13165.1,-1887.1,-2402.8,-3209.1
-7322.1,-6373.8,20113.2,-5222.7,13163.1,-1867.3,-2395.6,-3202.5
-7317.2,-6363.7,20109.5,-5208.5,13162.8,-1843.8,-2381.1,-3193.1
-7326.4,-6364.2,20111.2,-5202.2,13174.7,-1837.4,-2367.8,-3182.7
-7334.4,-6368,20115.3,-5203.4,13185.1,-1850.6,-2368,-3180.9
-7340.8,-6374.1,20117.1,-5210.1,13189,-1864.1,-2374.6,-3187.1
-7349.4,-6384.1,20120.5,-5220.9,13194.2,-1884.4,-2386.4,-3196
-7361.7,-6397.8,20127.8,-5230.8,13208.6,-1900.2,-2396.3,-3198.6
-7358.4,-6396.4,20131,-5230.2,13214.3,-1896.2,-2401.7,-3195.3
-7350.7,-6390.3,20128.9,-5224.4,13211.5,-1878.7,-2398,-3191.2
-7341.7,-6379.5,20122,-5215.2,13208.7,-1850.6,-2384.3,-3182.6
-7343.7,-6375.2,20111.2,-5211.1,13218.2,-1832.2,-2368,-3169.9
-7345.9,-6374.6,20105.5,-5209.7,13221.8,-1833.2,-2358.7,-3166.3
-7350.4,-6381.6,20103.1,-5215,13219.7,-1846.6,-2360.1,-3170.9
-7355.3,-6391,20101.4,-5225,13216.5,-1866.3,-2370,-3181.5
-7343.8,-6392.6,20092.1,-5237.5,13191.6,-1888.1,-2390.6,-3210.9
-7334,-6392.2,20085.4,-5241.9,13168.1,-1883.2,-2397.1,-3224.2
-7331.4,-6390.4,20084.7,-5236.7,13163.3,-1870.7,-2391.1,-3219
-7327,-6383.3,20084.7,-5222.2,13160.3,-1852,-2379.4,-3207.2
-7329,-6375.1,20087.8,-5199.9,13158.5,-1826.7,-2357.5,-3188.1
-7328.9,-6375.2,20089.4,-5191.2,13162.8,-1818.1,-2346.1,-3176
-7332.1,-6381.4,20090.1,-5196.1,13165.2,-1829.2,-2345.8,-3175.2
-7338.7,-6388.5,20091,-5207.1,13166.3,-1845.5,-2351.9,-3178.6
-7345.7,-6399.5,20092.8,-5221.1,13164.1,-1866.2,-2364.8,-3187.5
-7350.6,-6407.2,20095.9,-5230.4,13163.1,-1879.8,-2377.2,-3193.8
-7346.9,-6403.6,20096.9,-5229.9,13163,-1873.2,-2381.8,-3191.3
-7339.3,-6397.8,20095.2,-5230,13159,-1858.4,-2378.4,-3186.8
-7320.8,-6385.1,20089.4,-5225.1,13143.5,-1835.1,-2367.9,-3183.4
-7313.2,-6377.7,20083.5,-5213.9,13137.5,-1814.2,-2352.6,-3175.5
-7317.1,-6380.2,20081.2,-5211.5,13138.1,-1816.4,-2344.5,-3172.2
-7323.1,-6385.4,20081.3,-5213.9,13140.2,-1829.3,-2346.5,-3172.4
-7335.5,-6396.4,20084.5,-5220.5,13145.9,-1847.8,-2354.3,-3175.4
-7348.7,-6408.9,20089,-5232.1,13150.6,-1872.1,-2368.9,-3182.1
-7350.2,-6411,20091.5,-5236.4,13152.6,-1878.3,-2378.6,-3184.6
-7347.7,-6404.9,20091.8,-5235.3,13154.4,-1866.8,-2378.4,-3181
-7348.6,-6396.9,20093.6,-5224.9,13165.5,-1846.7,-2369.5,-3166.6
-7342.6,-6386.5,20092.2,-5210.1,13172.7,-1826.8,-2357.7,-3154.4
-7337.6,-6381.9,20089,-5203.6,13173.6,-1818,-2347.1,-3151
-7341.3,-6388.5,20088.4,-5206.6,13176.3,-1827,-2344.6,-3152.6
-7352.6,-6400.2,20092.9,-5212.8,13188.7,-1840.5,-2346.3,-3152.9
-7363.4,-6410.9,20098.2,-5224.8,13196.5,-1865.9,-2359.2,-3160.1
-7365.8,-6418.2,20101.2,-5234.9,13197.2,-1882.8,-2375,-3169.1
-7363.4,-6416.2,20098.8,-5235.1,13197.1,-1875.1,-2380,-3170.6
-7366.9,-6411,20091,-5230.2,13208.1,-1860.7,-2375.9,-3163
-7352.4,-6394.9,20083.1,-5215.3,13210.3,-1832.9,-2361.6,-3152.5
-7343.7,-6387.6,20076,-5207.5,13205.1,-1813.2,-2346.4,-3148.8
-7338.4,-6385.4,20070.1,-5205.6,13198.9,-1814.1,-2341.2,-3152.8
-7323.5,-6385,20057.2,-5213.6,13172.2,-1828.5,-2350.5,-3178.5
-7323.7,-6392.5,20049.9,-5225.3,13149.6,-1837.6,-2357.7,-3195.6
-7336.5,-6407.4,20052.8,-5238.3,13147.1,-1856.9,-2365.9,-3201.4
-7341.7,-6409.5,20056.5,-5238.4,13146.2,-1860.1,-2370.2,-3198.7
-7349.2,-6404.8,20063.2,-5225.7,13146.5,-1846.3,-2362.1,-3187.5
-7342.7,-6398.4,20065.4,-5214.7,13150.7,-1832.5,-2357.8,-3178.3
-7330.3,-6386.5,20060.8,-5200.9,13149.7,-1806.5,-2345.8,-3168.8
-7324.6,-6382.3,20055.5,-5194,13146.8,-1795,-2333.4,-3163.7
-7325.7,-6386.6,20051.9,-5196.7,13141.3,-1802.2,-2329.6,-3166.7
-7331.1,-6396.2,20052.1,-5204.5,13139.4,-1818.8,-2333.3,-3171.7
-7342.9,-6409.1,20055.4,-5218,13141.9,-1842.6,-2344.1,-3177.1
-7350.1,-6417.2,20057.9,-5230.8,13140.8,-1861.7,-2358.5,-3183.7
-7340.2,-6412.6,20056.5,-5235.8,13128,-1857.1,-2364.5,-3189.3
-7334.3,-6408.7,20053.8,-5229.7,13123.2,-1840.8,-2359.5,-3186.9
-7325.1,-6400.3,20050,-5217.1,13121.7,-1820.5,-2347.5,-3177.7
-7316.3,-6390.4,20045.1,-5203.2,13120.4,-1798.7,-2331.1,-3166.6
-7318.4,-6391.3,20043.5,-5201.2,13123.5,-1796.5,-2321.3,-3160.5
-7325.1,-6397.2,20043.2,-5208.3,13125,-1811.2,-2323.7,-3162.1
-7334.9,-6406.3,20044.4,-5216.6,13126.9,-1830.4,-2332.5,-3169.1
-7347.1,-6417.3,20048.4,-5229,13131.7,-1852.8,-2347.2,-3177.3
-7359.3,-6420.3,20055.2,-5233.3,13146.5,-1862.5,-2356.9,-3174.8
-7357.5,-6413.2,20058.6,-5227.8,13156.6,-1855.8,-2360,-3170.6
-7347.2,-6401.2,20056.2,-5217.7,13156.7,-1837.2,-2355.7,-3168.2
-7336,-6390.6,20051.2,-5203.8,13155.4,-1813.1,-2343.1,-3162.5
-7334.8,-6389.7,20049.7,-5192.7,13163.4,-1797.8,-2326.4,-3153.8
-7341.3,-6396.5,20051.1,-5195.5,13168.9,-1810.3,-2322.9,-3154.1
-7345.3,-6400.8,20050.9,-5201.1,13168.4,-1823.5,-2327.6,-3158.6
-7360.7,-6415.7,20051.2,-5217.5,13171.7,-1846.2,-2339.1,-3168.1
-7375.6,-6426.8,20048.4,-5232.7,13186.5,-1863.6,-2353.8,-3170.5
-7372.2,-6422.3,20045.4,-5232.4,13190.9,-1858.1,-2360.4,-3169.9
-7362.8,-6412.4,20040.9,-5226.7,13186.6,-1839.6,-2356.7,-3169.3
-7346.1,-6399,20033.9,-5215.4,13179.5,-1815.8,-2346.4,-3167.2
-7315.4,-6384.6,20015.4,-5202.9,13149.8,-1793,-2337,-3180.2
-7308.2,-6386.6,20004.1,-5202.3,13125,-1786.8,-2326.3,-3189.3
-7317.4,-6395.9,20003.7,-5204.5,13121.1,-1800.2,-2322.1,-3189.3
-7332.3,-6404.9,20007.7,-5207.4,13121.2,-1821,-2326.2,-3190.3
-7354.2,-6414.6,20018.7,-5210.1,13125.3,-1842.8,-2333.3,-3189.1
-7358.6,-6419.1,20026,-5215.9,13133,-1853.1,-2345.5,-3188
-7351.1,-6413.5,20027.8,-5212.6,13135.3,-1846.5,-2349.8,-3186.7
-7339.5,-6405.6,20025.8,-5206,13133.7,-1829.5,-2345.8,-3182.3
-7324.2,-6389.9,20019,-5193.5,13125.9,-1799.8,-2331.2,-3176
-7318.6,-6384.3,20014.7,-5187.6,13121.2,-1788.6,-2317,-3173.5
-7325.6,-6388.9,20013,-5189.6,13120.7,-1796.1,-2310.8,-3173.6
-7331.8,-6399,20013.9,-5201,13119.1,-1815.8,-2314.1,-3178.4
-7335.2,-6410.8,20015.8,-5219.2,13109.2,-1839.3,-2325.7,-3190.2
-7342.9,-6420.3,20018.8,-5227.6,13107.9,-1855.2,-2340.2,-3196.6
-7342.2,-6419.4,20021,-5227.6,13110,-1855.3,-2348.8,-3195.5
-7337.8,-6412.8,20020.6,-5220.8,13111.6,-1840.4,-2347.9,-3190.1
-7330.7,-6402.2,20018.8,-5207.4,13114.3,-1817.2,-2338.5,-3179.1
-7319.9,-6393.4,20016.1,-5197.7,13113.7,-1800.2,-2325.9,-3171.2
-7319.5,-6392.3,20013.5,-5195.4,13113.4,-1798.2,-2317.4,-3168.4
-7327.8,-6397.5,20013.5,-5202.8,13116.8,-1810.6,-2319.6,-3169
-7346.4,-6406.1,20018.4,-5210.6,13131.5,-1825.2,-2323.3,-3164.8
-7362.2,-6419.6,20026.2,-5221.2,13145,-1854,-2338.6,-3169.5
-7362.4,-6421.4,20029.2,-5224.6,13149.6,-1862,-2352.7,-3175.1
-7359.1,-6419.8,20029.2,-5221.2,13151.6,-1854.1,-2355.8,-3176.1
-7353.5,-6416.5,20030.7,-5213,13161,-1837,-2348.1,-3168.7
-7339.8,-6400.6,20028.2,-5199,13163.2,-1810.7,-2332.8,-3158.8
-7335.3,-6393.4,20023.9,-5192.5,13160,-1798.4,-2319.1,-3155.7
-7343.1,-6398.9,20021,-5197.9,13161.6,-1806.5,-2315.9,-3157.7
-7357.4,-6408.9,20016.5,-5210.2,13176.1,-1822.7,-2321.5,-3157
-7367.5,-6417.4,20016.3,-5221.8,13183,-1843,-2332.7,-3162.8
-7372.1,-6424,20017.8,-5232.8,13182.5,-1860.2,-2347.3,-3173.2
-7364.3,-6420.3,20016.1,-5234,13178.6,-1859.5,-2356.8,-3181.7
-7337.5,-6407.9,20003.8,-5232,13151.6,-1848.7,-2364.7,-3202
-7316.2,-6393.4,19992.7,-5222.3,13126,-1819.4,-2353.9,-3206.8
-7307.6,-6385.2,19988.3,-5208.9,13119.1,-1796.4,-2332.9,-3197.1
-7310,-6386.7,19988,-5200.4,13116.6,-1791.1,-2317.5,-3189.4
-7326,-6395.7,19995.8,-5194.3,13119.1,-1801.1,-2309.2,-3182.6
-7337.3,-6409,20002.4,-5200.2,13127,-1821.8,-2316.9,-3181.8
-7347,-6421.9,20007.5,-5214.5,13132.2,-1847,-2332.4,-3188.9
-7348.6,-6425.5,20011.3,-5222.1,13134.6,-1859.2,-2346.3,-3193.7
-7341.8,-6418.2,20011,-5220,13130,-1850.4,-2350.7,-3195.4
-7334,-6408.6,20009.2,-5212.2,13125.8,-1833.6,-2345.3,-3192.3
-7322.1,-6398.6,20005.5,-5200,13123,-1809.7,-2332.7,-3183.6
-7314.7,-6394.3,20001.5,-5193.9,13117.9,-1794.1,-2319.8,-3178.2
-7309.9,-6398.7,19998.3,-5201.2,13104.9,-1798.4,-2315.6,-3182.9
-7316,-6408.2,19998.1,-5206.5,13103.1,-1809.6,-2318.4,-3185.6
-7329.4,-6422.4,20001.1,-5217.9,13106.5,-1831.8,-2328.7,-3191
-7339,-6432.7,20005.5,-5227.8,13110.9,-1852.7,-2344.6,-3195.2
-7337.5,-6430.7,20009,-5229.3,13116.3,-1851.1,-2353.5,-3191
-7335.2,-6424.7,20009.6,-5228.8,13117.8,-1841.7,-2353.8,-3187.3
-7326.2,-6412.1,20007.1,-5216.3,13116.8,-1823.4,-2346.2,-3181.6
-7319.1,-6399.3,20002.6,-5199.1,13116,-1801.5,-2332,-3172.8
-7328.3,-6400.3,20003.5,-5194,13127.2,-1794.9,-2319.2,-3160.9
-7337.1,-6406.9,20007.5,-5199.3,13138.1,-1811.2,-2320.2,-3159.3
-7344.4,-6415.4,20009.4,-5206.3,13142.2,-1828.8,-2329.1,-3165.3
-7355.3,-6428,20013.8,-5219.2,13147.3,-1849,-2343.1,-3172.7
-7362.7,-6436.4,20021.3,-5226.4,13160.9,-1859.2,-2354.4,-3174
-7358.7,-6431.9,20024,-5224.6,13166.7,-1853.8,-2359.2,-3172.8
-7349.7,-6423,20020.8,-5217.8,13163.5,-1838.3,-2355.9,-3170.8
-7340.6,-6412.3,20014.2,-5208.5,13161.2,-1816.1,-2344.5,-3164.5
-7341.4,-6409.1,20004.3,-5204.4,13171.1,-1801.5,-2330.7,-3153.8
-7343.2,-6408.8,19999,-5201.7,13174.6,-1802.9,-2323.5,-3150.9
-7347.2,-6413.7,19996.9,-5206,13173.1,-1815.5,-2326.1,-3156
-7354,-6423.8,19995.7,-5216.2,13170.6,-1836.2,-2336.8,-3167.9
-7341.1,-6426.4,19987.3,-5230,13146,-1859.7,-2360.1,-3197.2
-7329.4,-6423.4,19981.8,-5235.1,13123.2,-1853.3,-2367.3,-3210.1
-7327.8,-6420.5,19981.7,-5231.9,13118.6,-1841.2,-2362.5,-3206.7
-7321.7,-6409.4,19981.8,-5219.2,13115.6,-1822,-2351.8,-3195.8
-7322.6,-6395.9,19984.9,-5197.5,13113.4,-1797.1,-2329.5,-3178.8
-7323.1,-6394.5,19986,-5190,13117.4,-1791.8,-2318.8,-3170.4
-7327.3,-6403.7,19986.2,-5195.2,13119.7,-1802.2,-2319.2,-3171.3
-7332.3,-6412.8,19987.5,-5203.7,13120.6,-1817.4,-2326,-3175.3
-7339.1,-6423.9,19990.1,-5217.7,13117.7,-1840.2,-2340.8,-3185.8
-7342.5,-6427.9,19993.9,-5225.9,13116.6,-1854.7,-2355,-3192.4
-7339,-6422.7,19995.7,-5223.3,13117.6,-1850.8,-2360,-3191.3
-7331.7,-6418.9,19994.7,-5221.3,13114.2,-1838.1,-2356.6,-3189.4
-7313.2,-6404.6,19989.8,-5214.3,13099,-1815.4,-2345.8,-3187.8
-7305.8,-6397.2,19984.2,-5201.5,13092.6,-1793.8,-2331.1,-3180.7
-7311.4,-6402.6,19982,-5200.1,13092.8,-1795.9,-2324.2,-3177.8
-7317.7,-6408.7,19983.5,-5204.3,13095.9,-1810.6,-2327.9,-3177.9
-7328,-6418.6,19987.7,-5213.1,13102.2,-1830.1,-2336.5,-3180.4
-7338.7,-6429.4,19993.5,-5226.7,13107.7,-1855.9,-2352.6,-3187.8
-7340.7,-6428.3,19996.5,-5229.6,13110.2,-1860.1,-2363.4,-3189.5
-7340.2,-6422.4,19996.9,-5226.5,13112.1,-1849.5,-2362.9,-3186.2
-7340.5,-6412.5,19999.2,-5218.4,13123.9,-1831.8,-2354.5,-3172.1
-7333.5,-6399.9,19998.8,-5206.2,13131.6,-1812,-2342.2,-3160.2
-7328.6,-6396.9,19995.1,-5198,13132.4,-1800.7,-2331.8,-3156
-7334.1,-6405.1,19995.1,-5200.1,13134.8,-1811.1,-2331,-3157.8
-7345.6,-6417.5,20000.7,-5206.2,13147.3,-1827,-2336.2,-3157.4
-7358.5,-6428.9,20007.9,-5220.2,13155.9,-1853.7,-2350.6,-3163.7
-7363.1,-6432.4,20011.7,-5229.5,13156.7,-1870.3,-2366.9,-3172.5
-7359.6,-6429,20011.9,-5229.8,13157.9,-1867,-2373.9,-3175.5
-7359.8,-6426.7,20005.8,-5229.6,13169.7,-1852.5,-2371.5,-3167.7
-7346,-6410.9,19998.3,-5215.4,13171,-1822.4,-2356.7,-3157.4
-7335.9,-6400.2,19991.8,-5203,13166.3,-1800.7,-2339.6,-3152.9
-7335.1,-6402.1,19986.3,-5202.7,13161.6,-1803.6,-2331.8,-3158.4
-7321,-6402.9,19975.2,-5211,13136.3,-1822.9,-2343.5,-3184.6
-7320.8,-6412.7,19970.2,-5222,13114.9,-1833.8,-2350.9,-3201.2
-7332.5,-6426.7,19975,-5234.4,13113.5,-1855,-2360.1,-3206.4
-7337.4,-6428.4,19980.5,-5235.9,13113.7,-1860.6,-2365.6,-3204.1
-7342.7,-6423,19989.2,-5223.9,13115.1,-1847.5,-2357.9,-3192.7
-7336.2,-6415.2,19992.7,-5213.6,13120.1,-1834,-2353.3,-3182.7
-7324.3,-6402.7,19990,-5201.1,13120.2,-1809.4,-2341.2,-3173.2
-7319.3,-6396.9,19987.2,-5194.2,13119.2,-1798.4,-2330.8,-3168.5
-7320.1,-6399.8,19986.2,-5197.5,13115.2,-1806.8,-2330.7,-3172.2
-7326.7,-6408.7,19987.5,-5206.6,13113.9,-1822.3,-2336.8,-3176.6
-7337.6,-6423.6,19992.2,-5220.2,13116.7,-1847.1,-2350.3,-3183.4
-7343.7,-6434,19996.5,-5233.1,13116.5,-1864.4,-2365,-3190.4
-7333.2,-6430.1,19996.8,-5238.5,13104.8,-1859.2,-2371.3,-3195.1
-7324.7,-6423.7,19995.7,-5230.7,13100.8,-1841.6,-2367.6,-3190.5
-7314.5,-6413.5,19993.5,-5218.6,13100.1,-1821.9,-2357.7,-3181.5
-7305.7,-6402.2,19990.3,-5205.9,13100.1,-1804.2,-2345,-3172.5
-7308.1,-6402.6,19989.8,-5202.3,13103.8,-1804.4,-2337.5,-3167.2
-7316,-6409.1,19990.6,-5208.2,13106.1,-1819.3,-2339.8,-3169.1
-7327.4,-6420.9,19993.5,-5220.6,13108.8,-1840.7,-2349.3,-3175.7
-7340.3,-6432.1,19998.9,-5235.5,13114.4,-1864.2,-2363.9,-3183.2
-7351.7,-6433.4,20006.8,-5238.8,13129.5,-1870.4,-2372.3,-3179.1
-7350.4,-6427.9,20011.2,-5232.2,13139.8,-1862.1,-2373.5,-3173.8
-7339.9,-6418.9,20009.9,-5223.1,13140.4,-1842.8,-2369.1,-3169.5
-7325.3,-6406,20006,-5208.6,13140.3,-1812.6,-2352.8,-3161.4
-7328.4,-6409.4,20007.4,-5203.6,13151.1,-1807.1,-2337.7,-3155.5
-7332.7,-6413.6,20009.7,-5205.7,13157.1,-1817.8,-2334.8,-3155.8
-7337.6,-6420.3,20011.2,-5213.2,13157.3,-1833.3,-2342.2,-3163.2
-7352.8,-6434.7,20012.8,-5230.2,13161.4,-1856.2,-2356.6,-3173.6
-7366.3,-6442.8,20010.6,-5244.9,13176.6,-1869.7,-2370.5,-3174.6
-7363.8,-6437.2,20008.9,-5240.8,13182.1,-1865.6,-2376.2,-3173.6
-7356.3,-6428.6,20006,-5231.9,13179,-1853.4,-2374.5,-3174.2
-7339.7,-6413.8,20000,-5217.3,13171.6,-1831.9,-2366.4,-3172.9
-7311.6,-6397.7,19983.4,-5208,13142.2,-1813.9,-2360,-3187.7
-7302.8,-6395.8,19972.5,-5207.1,13117.1,-1803.1,-2347.6,-3196.2
-7311.9,-6407,19973.1,-5212.2,13113.8,-1815.8,-2342.4,-3196.5
-7326.3,-6420.1,19978.6,-5219.5,13115.3,-1835.7,-2345.8,-3196.9
-7348.9,-6431.4,19990.7,-5222.4,13119.6,-1855.7,-2351.6,-3195
-7353.3,-6435.9,19998.9,-5225.4,13127.2,-1866.9,-2364.9,-3194.3
-7347.1,-6431.5,20000.7,-5225.4,13129.9,-1854.8,-2367.9,-3190.5
-7338.6,-6421.5,19998.8,-5219.3,13128.6,-1835.3,-2360.9,-3184.6
-7323.8,-6407.5,19994.3,-5208.4,13121.5,-1811.5,-2347.7,-3180.1
-7317.4,-6402.3,19990.8,-5202.1,13116.9,-1797,-2334.7,-3176.1
-7322.8,-6408.6,19990.8,-5206.5,13117.1,-1804.3,-2330,-3175
-7328.9,-6418.3,19992.7,-5218.1,13115.7,-1822.1,-2334.7,-3179.2
-7334.2,-6428.4,19995.6,-5236.8,13105.7,-1846.8,-2348.2,-3191.7
-7341.8,-6436.3,19999.4,-5245.7,13105.4,-1862.3,-2363.1,-3198.5
-7341,-6435.7,20002.4,-5242.5,13108,-1862.5,-2370.9,-3198.5
-7333.6,-6431.5,20002.6,-5233.3,13109.6,-1847.2,-2369.4,-3192.9
-7324,-6422.7,20001.2,-5219.7,13111.5,-1825.6,-2359.4,-3183.7
-7315.3,-6411.3,19997.6,-5207.8,13110.4,-1807.3,-2345.2,-3176
-7315.7,-6410.5,19995.5,-5205.8,13109.7,-1803.6,-2335.7,-3173
-7324.4,-6418.1,19996.2,-5212.5,13112.9,-1817.3,-2337.1,-3174.1
-7345.1,-6429.7,20003.1,-5221.1,13128.5,-1838,-2342.8,-3171.8
-7361.4,-6442,20011.3,-5233.9,13141.8,-1866.3,-2359.4,-3176.8
-7361.3,-6442.3,20013.9,-5239.5,13145.8,-1872.3,-2373.3,-3181.8
-7353.8,-6435.6,20014.3,-5236.6,13147.8,-1858.7,-2373.5,-3179.7
-7348.9,-6429.5,20016.4,-5228.8,13157.9,-1839.8,-2363.8,-3170
-7337.2,-6415.8,20016.1,-5216.7,13161.6,-1820.9,-2351.2,-3161
-7329.5,-6409.3,20012.7,-5209.5,13158.7,-1807.9,-2339,-3157.7
-7334.5,-6418.5,20010.8,-5216.2,13160.1,-1816.7,-2337.2,-3160.5
-7348.8,-6429.5,20006.6,-5225.8,13173.8,-1832.1,-2343.7,-3159.5
-7362.3,-6439.5,20006.4,-5234.3,13181,-1852.6,-2354.2,-3164.5
-7367.2,-6445.2,20008.4,-5243.2,13180.8,-1870.3,-2368.6,-3173.6
-7360.3,-6439,20007.6,-5242.2,13177,-1870.6,-2377.9,-3180.4
-7334.3,-6428.6,19995.7,-5239.6,13149.7,-1860.9,-2383.6,-3200.2
-7311.7,-6416.1,19984.6,-5229.3,13123.3,-1829.1,-2371.3,-3204.1
-7304.6,-6409.5,19980.4,-5216.4,13116.3,-1806.4,-2351.1,-3194.9
-7309.3,-6409.7,19981,-5210,13114.5,-1804.9,-2338.5,-3188.4
-7324.7,-6415.1,19989.2,-5206,13116.8,-1813.8,-2330.9,-3181.7
-7336.3,-6427.9,19996.2,-5216.7,13124.9,-1834.4,-2339,-3182
-7345.3,-6439.2,20001.6,-5232.1,13130.3,-1854.8,-2353.7,-3187.9
-7346.1,-6442.8,20006,-5238.4,13132.5,-1865.7,-2366.9,-3192
-7338.3,-6435.9,20006.5,-5235.7,13128.1,-1859,-2371.2,-3194
-7330.6,-6425.3,20005,-5227.1,13124.3,-1841.5,-2366.4,-3191.1
-7321.3,-6413.3,20001.5,-5212.6,13121.7,-1819,-2353.9,-3183.2
-7316.6,-6408.7,19998.6,-5207.8,13116.7,-1807.2,-2342.1,-3179.5
-7309.3,-6412.3,19996.3,-5218.2,13103.7,-1808.5,-2337.1,-3184.1
-7317.2,-6420.9,19996.7,-5223.4,13101.9,-1819.7,-2339.6,-3187.2
-7330.6,-6435.2,20001.3,-5235.2,13106.3,-1845.2,-2351.8,-3193.3
-7338.2,-6442.8,20006.9,-5243.4,13111.8,-1865.7,-2367.5,-3197.7
-7337,-6439.8,20011.4,-5241.3,13117.6,-1865.4,-2375.2,-3195.9
-7332.3,-6433.6,20012.5,-5236.8,13119.2,-1855.5,-2374.2,-3193.5
-7323,-6423.9,20011.2,-5226.6,13118.4,-1838.1,-2366.2,-3187.5
-7315.6,-6415.5,20008.5,-5215.3,13118.5,-1816.2,-2352.3,-3177.8
-7327,-6416.4,20010.4,-5210,13131.4,-1810,-2339.6,-3166.4
-7337.3,-6422.2,20014.9,-5213,13143.6,-1826.3,-2340.6,-3164.8
-7344.3,-6431.5,20017.5,-5222.5,13148.4,-1844.7,-2349.8,-3172.8
-7353.4,-6442.5,20021,-5234.5,13153.1,-1863.1,-2363.6,-3182
-7361.4,-6449.8,20028.2,-5240.4,13166.4,-1872.5,-2374,-3184.1
