EEG1,EEG2,EEG3,EEG4,EEG5,EEG6,EEG7,EEG8
0,0,0,0,0,0,0,0
-2685.5,-15.6,-871.8,-2692.4,3667,3836.9,3996.5,1198.4
-2687.3,-17.4,-872.2,-2692.5,3669.4,3836.4,3995.1,1200.5
-2689.1,-18.5,-872.6,-2691.8,3670.7,3837.6,3996.3,1201.8
-2690.1,-20.4,-870.8,-2692.6,3671.8,3838.5,3997.7,1202.5
-2689.4,-19.5,-868.3,-2692.8,3670.5,3839.6,3998,1198.5
-2689.4,-18.2,-868.3,-2693.4,3659.2,3841.6,3996.6,1186.8
-2691.7,-19.3,-872.5,-2694.7,3654.3,3841.3,3996.7,1188.1
-2694.9,-19.9,-874.9,-2696.7,3661.5,3838.8,3996.7,1195.6
-2699.2,-18,-876.2,-2696.2,3665.3,3837.4,3997.5,1200.1
-2699.2,-14.7,-873.9,-2693.4,3655.4,3840.4,4000.2,1197
-2698.2,-15.7,-877,-2694.6,3657,3840.8,4000.6,1197.8
-2695.9,-19,-875.9,-2696.7,3663.6,3840.2,4001.3,1201.3
-2691.7,-20.7,-875.1,-2693.1,3671.1,3838.2,4001.2,1204.5
-2688.2,-20.3,-874.6,-2690.5,3681.9,3836.6,4001.9,1209.6
-2688.6,-18.5,-875.2,-2688.2,3687.8,3837.1,4003.4,1211.3
-2689.1,-17.2,-873.7,-2686.5,3689.3,3839.4,4005.6,1210.6
-2685.8,-15.5,-871.6,-2686.5,3691.5,3839.5,4006.4,1208.6
-2683.1,-13.8,-869.2,-2686.4,3696.6,3840.6,4008.8,1206.9
-2685.7,-11.4,-870.3,-2686.2,3698.7,3842.9,4009.2,1209.9
-2687.7,-9.5,-870.3,-2685.8,3695.1,3846.7,4010.8,1211
-2689.3,-9.6,-868.7,-2683.9,3691.7,3848.8,4011.9,1212.7
-2688,-12.2,-866.3,-2682.5,3693.9,3851.6,4014.2,1218.9
-2686,-12.8,-866,-2681.4,3695.2,3853,4015.9,1221.5
-2681.8,-10.1,-864.9,-2680.7,3693.3,3854.4,4017.9,1219.6
-2680.4,-8.7,-866.2,-2680.5,3695.1,3853.3,4017.7,1221.3
-2680.5,-10.2,-863,-2681.1,3707.4,3851.3,4017.1,1232.2
-2680.4,-11.4,-857.9,-2680.3,3705.9,3854.2,4017.3,1229.5
-2680.9,-9.4,-858.7,-2678.3,3699.8,3856.1,4018,1224.9
-2680.2,-5.7,-860.1,-2677.6,3696.7,3857.3,4018.5,1223.9
-2676.9,-1.7,-858.6,-2677.5,3700.5,3857.8,4019.2,1229.3
-2672.4,-0.1,-855.7,-2678.7,3701.5,3857.2,4018.9,1229.9
-2668.9,-1.3,-854.8,-2678.3,3701.3,3858.9,4020.2,1228.6
-2670.4,-4.2,-853.5,-2679.5,3702.7,3858.3,4020.1,1226.2
-2675.4,-5.9,-854,-2679.9,3702.9,3856.6,4018.8,1222.5
-2676.7,-5.7,-854.1,-2678.4,3701.4,3857.2,4019.2,1220.2
-2675.4,-5.6,-854.2,-2678.9,3699.2,3857.9,4019,1220.1
-2673.6,-3.4,-857.3,-2678.9,3694.8,3857,4016.4,1216.4
-2673,-3.4,-859.1,-2679.4,3677.7,3854.7,4011.2,1199.8
-2672.8,-5.8,-855.3,-2680.6,3667.5,3853.6,4010.8,1196.1
-2674.6,-6.9,-854.4,-2679.1,3670.1,3850.6,4010.3,1199.6
-2675.9,-7.9,-855.1,-2679.3,3672.1,3851,4012.4,1203.3
-2673.2,-2.7,-850.8,-2677.4,3661.2,3854.2,4015.3,1199.7
-2676.4,-3.1,-852.7,-2677.3,3661.1,3853.4,4014.1,1200.8
-2679.2,-4.9,-855.8,-2678.3,3666.5,3853,4013.7,1205.2
-2679.4,-7.4,-858.2,-2679.8,3670.4,3852.4,4012,1207.5
-2678.3,-7.3,-858.9,-2679.7,3674.7,3853.1,4011.6,1210
-2678.8,-7.6,-858.7,-2680.2,3676.5,3854.6,4011.9,1210.5
-2677.1,-7.1,-858.8,-2679.3,3675.9,3855.4,4012.1,1209.9
-2675.5,-6.8,-857.3,-2680,3676.9,3854.9,4012.1,1208
-2673.8,-9.9,-857.5,-2682.4,3682,3852.9,4012.1,1208.2
-2672,-11.5,-857.3,-2684.3,3686.2,3852,4011.6,1211.4
-2672.7,-11.7,-856.3,-2686.3,3685.8,3851.4,4010.6,1211.4
-2673.4,-9.9,-854.7,-2686.1,3683.4,3850.7,4009.7,1212
-2671.5,-9.6,-852.7,-2686.1,3682,3851.3,4009.8,1214.6
-2671.4,-9.8,-852.8,-2685.7,3679.1,3851.3,4009.8,1213.4
-2671.1,-8.4,-852.2,-2682.7,3674.5,3852,4010.7,1209.7
-2672.1,-7.1,-854.3,-2680.1,3673.3,3853,4012.5,1209.6
-2674.5,-8.2,-854.8,-2681.3,3686.1,3851.7,4014.7,1219.5
-2675.5,-7.6,-855.6,-2681.2,3691.4,3853.1,4016.4,1220.2
-2674.9,-8.9,-860.8,-2681.2,3690.5,3855,4018.1,1218.5
-2673.6,-8.4,-860.9,-2680.9,3690.8,3854.1,4017.2,1217.8
-2674.9,-7.4,-858.9,-2680.6,3696.9,3854,4017.4,1224
-2673.1,-5.9,-856.9,-2679.8,3696.4,3855.8,4018.6,1223.9
-2671.6,-3.8,-856,-2678.6,3691.9,3859.6,4020.7,1220.7
-2673.6,-7.1,-856.8,-2681.1,3690.5,3860,4021.3,1219.7
-2675.6,-9.3,-856.4,-2684.2,3689.8,3858.1,4019.8,1218.1
-2677.6,-7.8,-853.4,-2686.9,3690.8,3858.1,4019.3,1218.1
-2679.2,-5.5,-852.5,-2687.3,3691.9,3859.8,4019.5,1219.3
-2681.2,-6.8,-852.1,-2687.7,3689.6,3858.3,4016.8,1217.2
-2682.5,-7.1,-852.4,-2685.4,3674.8,3854.8,4010.6,1202.2
-2682.9,-8,-856.7,-2683.9,3665.2,3852.8,4009.2,1200.5
-2682.7,-9.2,-858.1,-2683.2,3668.5,3850.2,4008.6,1207.5
-2679.5,-9.8,-856.2,-2682.1,3670.1,3849.6,4009.7,1211.9
-2673.5,-8.2,-851.8,-2680.8,3661.2,3852,4012.7,1209
-2670.5,-7.6,-853.1,-2681.1,3665.3,3852.3,4014.1,1210.3
-2673.7,-9.2,-856.4,-2683.2,3676.1,3852,4015.1,1215.1
-2675.6,-9.2,-858.3,-2684.5,3684.8,3853,4015.3,1219.9
-2677.5,-8,-862.4,-2684.5,3693.1,3853.9,4015.7,1225.7
-2683.2,-8.8,-863.4,-2684.7,3696.8,3855.8,4017.1,1226.4
-2683.7,-8.9,-860.6,-2684.3,3696.5,3858.4,4019,1225.8
-2680.8,-8.7,-857,-2684.5,3695.7,3859.1,4019.9,1224.1
-2676.2,-6,-854.7,-2682.8,3698.8,3858.1,4019.9,1223.5
-2671.9,-4.8,-851.9,-2682.7,3702.8,3857.5,4018.4,1225.4
-2668.4,-4.8,-849,-2681.6,3701.7,3858.4,4018.3,1224.1
-2666.2,-6.4,-846.6,-2680.5,3701.9,3858.9,4019.2,1223
-2665.6,-4,-849.7,-2677.3,3704.3,3860,4019.9,1223.6
-2665.5,-2,-850.8,-2675.9,3702.4,3859.4,4018.9,1221.3
-2663.8,-1.4,-848.3,-2676.1,3698.2,3858.9,4017.4,1218.6
-2664.4,-2.3,-847.7,-2675.4,3697.2,3860.2,4017.2,1221
-2666.1,-1.3,-847.5,-2674.2,3705.4,3862,4018.8,1230.2
-2663.8,0.8,-844.3,-2672.3,3705.1,3864.4,4019.8,1229.5
-2660.8,2.8,-841.7,-2670.7,3699.3,3865.6,4019.5,1224.9
-2660.6,4.1,-841.2,-2670.3,3695.4,3866.6,4019.3,1223.4
-2659.9,4.2,-840.7,-2670.9,3697.3,3868.2,4020.1,1227.4
-2660.2,4,-840.6,-2672.3,3695.5,3867.8,4018.3,1225.2
-2662.5,3.9,-838.4,-2672.5,3689.8,3866.9,4016.3,1220.3
-2666.6,5.8,-841.7,-2670.7,3683.1,3866.3,4014.4,1215.2
-2670,4.1,-848.4,-2671.1,3677,3865,4012.2,1210.3
-2667.7,0.8,-844.7,-2671.2,3672.6,3864.3,4011,1208.1
-2667.5,1.9,-843.8,-2669.7,3670.8,3864,4011.5,1207.8
-2666.9,1.2,-846.6,-2670.7,3670.5,3860.9,4010,1204.7
-2666.6,0.4,-852,-2672.9,3659.2,3857.5,4004.8,1189.8
-2670.5,-1.1,-854.4,-2673.8,3653.9,3855.6,4003.8,1189.8
-2674.6,-8.3,-855.6,-2678.5,3660.6,3854.2,4004.1,1198.7
-2674.1,-13.2,-856.1,-2681.7,3662.1,3855.2,4005.7,1202.7
-2674.5,-11.8,-853.5,-2679.9,3650.2,3859.9,4008.7,1199.6
-2674.7,-12.2,-855,-2682,3651,3858.4,4008.2,1201.4
-2670.3,-5.5,-854.5,-2681,3658.6,3852.1,4004.6,1204
-2666.6,1.8,-853.5,-2679.5,3666.5,3845.6,4000.2,1204.4
-2666.3,3.7,-854.7,-2679.3,3678.5,3844.8,3999.7,1207.9
-2669.3,0.5,-853.7,-2680.7,3687.5,3846,4000.2,1211.2
-2671.7,0.3,-852,-2679.8,3690.3,3847.9,4000.4,1211.5
-2671.1,3.1,-851.2,-2676.9,3688.8,3849,3999.7,1209.8
-2670.3,5.4,-849.9,-2675.1,3689.8,3847.2,3998.3,1208.6
-2668.4,8.3,-849.7,-2674.5,3690.7,3846.1,3996.8,1210.3
-2666,13,-846.9,-2674.2,3688.1,3849.4,3997.8,1210.2
-2665.6,18.9,-846.1,-2672.4,3686.2,3852.6,4000.9,1209.7
-2663.8,21.7,-845.7,-2671.7,3690.3,3851.1,4001.8,1212.2
-2661.2,24.6,-847.4,-2670.8,3694.6,3848.7,4001.1,1211.9
-2658.5,24.3,-843.3,-2669.9,3694.4,3845.8,3998.6,1209
-2660.1,22.6,-841.1,-2668,3694.5,3846.3,3998.3,1209.5
-2661.8,24.9,-842.1,-2665.6,3702.1,3846.9,3999.3,1217
-2657.7,32.4,-840,-2663,3700.5,3845.1,3996.8,1214.4
-2651,40.1,-835.9,-2660.3,3694.2,3844.6,3995.2,1209.6
-2644.3,40.6,-832.2,-2659.6,3691.4,3845.8,3996.9,1208.4
-2640.5,40.9,-830.7,-2657.8,3695.1,3849,4000.1,1211.8
-2639,44.4,-830.6,-2655.9,3695.6,3850,4001.5,1210.7
-2639.8,50.2,-829.3,-2652.7,3693.1,3849.2,4000.4,1208.6
-2642.9,52.4,-827,-2652.8,3690.2,3845.3,3996.9,1205.5
-2644.8,53.2,-831.5,-2654.3,3686.3,3842.4,3993.6,1201.3
-2643,55.4,-831.9,-2652.7,3683.1,3842.8,3993.6,1199.5
-2639.8,57.7,-826.8,-2651.7,3679,3843.4,3992.9,1197.1
-2635.4,58.9,-824.1,-2651.4,3674.8,3841.3,3990.7,1192.7
-2632.4,58.3,-820.8,-2653.1,3662,3839.9,3987.9,1178.8
-2634.9,57.9,-826.3,-2654.8,3655.9,3841.5,3989.8,1177.6
-2637,53.5,-827.6,-2660.6,3661.7,3838.8,3989.8,1184.2
-2635.8,55.6,-824.8,-2659.6,3662,3838.3,3989.4,1186.5
-2631.5,61.7,-822.2,-2654.6,3649.9,3837.1,3987.2,1181.1
-2627.8,62.9,-822.7,-2653.6,3649.5,3832.9,3982.8,1180.2
-2626.6,65.7,-821.9,-2654.3,3651.6,3831.1,3980.4,1181.2
-2631.4,67.2,-821.8,-2654,3653.7,3831.5,3980.3,1183
-2634.5,67.1,-818.6,-2653.5,3659.6,3832.5,3981.7,1188.7
-2634.9,66.6,-814.3,-2653.5,3662.6,3832.9,3982.8,1190.2
-2633.8,66.9,-816.8,-2652.2,3662.1,3833.1,3982.9,1188.7
-2633.8,66.2,-821.1,-2651.2,3661.1,3833.7,3984,1186.5
-2635.4,65.3,-825,-2653.1,3665.4,3834,3985.6,1187.3
-2635.5,65,-826.9,-2654.4,3669.1,3832.8,3983.8,1190.7
-2631.5,64.9,-822.9,-2655.1,3666.6,3831.9,3981.2,1189.5
-2627,66.5,-822.9,-2650.3,3663.4,3831.1,3980.1,1189.1
-2627,65.7,-821.9,-2649.7,3664.1,3832.7,3983,1191.7
-2630.4,65.3,-819.2,-2652.2,3663,3834.8,3985.7,1190.7
-2631.8,67.3,-818.7,-2651,3662.4,3837.3,3987.8,1189.6
-2632.4,67.9,-820.3,-2650.2,3665.5,3836.1,3987.2,1191.8
-2631.4,63.5,-822,-2652.2,3678,3833.2,3987.4,1201.6
-2629.1,62.2,-822.9,-2653.6,3681.3,3834.8,3987.7,1201
-2626.8,62.7,-821.5,-2653.4,3677.3,3836,3986.5,1196.6
-2626.1,64.1,-821.4,-2651,3673.4,3838.8,3987,1194.7
-2625,61.2,-817.8,-2651.8,3674.5,3842.4,3989.4,1199.8
-2625.3,61.9,-816.3,-2652.9,3672.5,3843.6,3989.4,1200.3
-2627.3,64.6,-815.3,-2650.8,3668.2,3845.9,3990.7,1197.6
-2628.5,62.9,-817.9,-2649.8,3665.9,3844.5,3990.4,1195.9
-2627.6,57.3,-819.3,-2653.3,3663.5,3839.9,3987.7,1192.1
-2628.7,55.5,-819.8,-2654.6,3663.4,3838.7,3987.4,1192
-2632.4,55.2,-821.6,-2655.5,3662.8,3839.3,3987.1,1192.9
-2632.1,56.5,-818.8,-2656.9,3656.7,3839.9,3983.9,1188.1
-2635,55.4,-821.8,-2658.8,3640.5,3840.6,3982.2,1172.7
-2639.1,54.7,-824.3,-2658.9,3632,3840,3983.1,1170.8
-2644.3,52,-826,-2661.4,3636.4,3840.5,3984.9,1177.3
-2647.3,49.6,-827.5,-2664.4,3639.5,3841.9,3987.5,1181.6
-2644.7,48.8,-827,-2662.7,3630.8,3845.1,3989.8,1178.3
-2644.3,42,-829.4,-2663.8,3633,3843.8,3988.1,1179.5
-2645.8,37.6,-834.9,-2666.8,3640.1,3840.4,3985.7,1184
-2647.4,38.1,-838.2,-2668,3646.7,3838.8,3985.3,1187.1
-2649.5,39.8,-840.7,-2668.6,3653.7,3838.2,3985.8,1191.6
-2653.4,40.7,-840,-2670.4,3657.4,3838.9,3986.5,1192.4
-2653.5,42.5,-844.4,-2670.1,3658,3841.8,3989.5,1191.7
-2650.2,42.3,-845.4,-2669.3,3658.4,3840.5,3990.4,1189.2
-2651.2,37.8,-840.5,-2670.4,3662.7,3837,3989.1,1187.1
-2653.4,33.5,-834.4,-2673,3666.1,3835.8,3987.4,1188.2
-2653.7,33.1,-834.1,-2674.9,3664.8,3836.9,3987.1,1187.4
-2651.6,31.7,-833.9,-2677.8,3663,3837.7,3987.1,1187.5
-2649.4,30.9,-833.4,-2678,3663,3835.5,3985.5,1187.7
-2649.4,30.6,-837,-2672.1,3659.9,3835.2,3985.1,1185.1
-2651.7,33.1,-836.4,-2667.4,3656,3835.2,3984.4,1183.2
-2656.2,37.2,-838.2,-2664.2,3657.4,3836.2,3985.6,1186.5
-2661.2,32.9,-839.6,-2667.4,3668.9,3835.5,3986.6,1196.4
-2660.6,31.1,-835.9,-2668.9,3671.5,3837.4,3988.3,1196.2
-2657.7,32.1,-836.8,-2667.7,3668.6,3838.5,3989.4,1193.7
-2657.3,29.6,-837.5,-2669.8,3668.1,3837.5,3988.4,1193.5
-2655.7,26.8,-837.6,-2670.8,3674.2,3839.4,3991.1,1199.6
-2652.5,24.9,-837.6,-2671.2,3673.5,3840.1,3991.6,1198.7
-2649.3,25.5,-836.6,-2670.9,3668.6,3841.1,3991.6,1194.7
-2649.7,27.1,-836.8,-2671.2,3664.4,3841.3,3991.6,1191.6
-2656.3,26.9,-838.7,-2675,3661.7,3838.9,3989.8,1189.1
-2657.2,25.4,-838.1,-2676.9,3661.6,3838.4,3988.7,1189.1
-2656.4,22.2,-839.7,-2676.7,3665.5,3837.8,3987.8,1191.7
-2658.3,20.2,-843.1,-2675.7,3667.7,3835.7,3986.1,1191.4
-2660.4,20.6,-844.8,-2676.1,3657.6,3833,3982,1179.7
-2663.2,19.5,-846.1,-2676.4,3651,3831.8,3980.1,1179.6
-2665,16.3,-847.2,-2678.9,3654.7,3832.5,3980.5,1186.6
-2664.9,15.9,-845.8,-2682.6,3655.1,3835.1,3983.2,1191.3
-2663.7,18.9,-843.3,-2681.2,3644,3841.1,3988.4,1190
-2664.4,18.7,-846.5,-2681.7,3645.2,3841.8,3988.8,1192.1
-2667.5,16.5,-850.2,-2682.7,3653.3,3839.9,3987.6,1195.9
-2671.2,16.7,-852.7,-2682.9,3660.4,3838.1,3986.2,1197.8
-2672.2,15.2,-852.7,-2682,3667.8,3837.6,3986.1,1200.1
-2671,14.5,-852.2,-2681,3670.3,3835.7,3983.6,1200.1
-2668.5,15.2,-850.8,-2680.5,3668.5,3836.3,3982.8,1199.2
-2667.1,14.8,-848.2,-2680.9,3666.5,3838,3983.8,1198.6
-2662.6,14.2,-846.4,-2682.4,3668.2,3838.8,3985,1199.1
-2663.6,15.1,-847.6,-2680.7,3670.4,3839.2,3986,1199.8
-2669.9,18.5,-845.9,-2676.4,3671.5,3839.6,3987.1,1198.6
-2672.3,19.2,-845.5,-2674.9,3674.9,3838.6,3987.5,1199.8
-2670.9,17.9,-847,-2674.7,3678.6,3837.5,3986.4,1202.9
-2668,15.2,-844.4,-2677,3678.2,3838,3986.3,1203.1
-2663.9,14.1,-844.1,-2679,3675.6,3838.5,3986.3,1202.9
-2662.6,14.9,-844.8,-2680,3676.9,3838.6,3986.5,1207
-2661.2,15.1,-845.8,-2680.9,3688.1,3839.8,3989.4,1218.3
-2656.8,14.6,-845.8,-2681.4,3691.1,3841.5,3991.1,1217.9
-2657.7,17.3,-843.5,-2678.9,3689.8,3845.8,3994.9,1213.9
-2662.2,17.6,-842.4,-2677.3,3689.9,3847.5,3997.6,1210.5
-2664.8,16.6,-841.4,-2674.7,3697.4,3850.3,4000.9,1214.9
-2668.1,14.6,-840.8,-2674.8,3699.2,3851.6,4001.6,1214.6
-2665.2,13.2,-839.2,-2677.4,3694.3,3852.4,4001.6,1210.1
-2662.4,13.6,-841.1,-2679.5,3689,3851.5,4000.7,1206.4
-2663.1,13.7,-845.5,-2681.4,3684.8,3848.8,3999.2,1203.2
-2661.9,15.5,-847.3,-2680.9,3683.8,3847.9,3999.4,1203.6
-2662.6,16.7,-847.1,-2681.8,3685.2,3848.1,4000.4,1205.6
-2664.1,17.8,-847.3,-2682.1,3685.9,3847.5,4000.2,1204.4
-2664.6,15.5,-847.7,-2682.4,3677.1,3845.4,3996.4,1191.9
-2666.4,14.4,-850.6,-2681.5,3672.8,3843.2,3994.5,1191.1
-2667.8,12.2,-853,-2683.5,3675.8,3841.9,3992.5,1196
-2669.1,12.3,-852.1,-2685.8,3673.8,3843.9,3992.6,1198.4
-2667.6,16.4,-850.5,-2683.1,3659.9,3849.7,3995.7,1195.3
-2667.6,16.5,-850.9,-2682.2,3657.7,3850.1,3995.8,1197.1
-2670,16.1,-850.1,-2681.6,3663.3,3849.9,3995.9,1202.9
-2673.4,15.1,-847.1,-2681.5,3669.5,3849.3,3995.3,1206
-2674.5,13.1,-846.1,-2681.6,3679.1,3847,3994.9,1210.1
-2673.6,11.3,-847,-2681.4,3686.4,3845,3994.4,1212.9
-2670.5,10.2,-849.1,-2681.3,3689.1,3844.1,3993.7,1212.8
-2667.8,12.2,-850.6,-2679.8,3689.6,3845.3,3994.4,1210.4
-2668,14.3,-853.2,-2678.3,3693.3,3847,3996.3,1210.5
-2669.1,13.7,-853.9,-2678.1,3695.4,3849.4,3997.5,1212.8
-2666.7,14.7,-851.1,-2677.2,3694,3851.2,3999,1212.9
-2663.9,16.1,-847.7,-2677.8,3694.8,3851.6,4000.5,1214.3
-2660.1,17.2,-845.7,-2678.5,3699.1,3853.7,4002.9,1217.9
-2662.6,18,-842.4,-2679.3,3700.3,3855.2,4004.8,1216.1
-2664.4,18.5,-842.5,-2678.6,3700.6,3855.5,4005.9,1214.4
-2665.9,18,-844.9,-2677.5,3702.3,3853.9,4005.3,1215.7
-2667.5,19.6,-844.5,-2674.3,3708.6,3855,4006.5,1222.2
-2663.3,19.9,-840.9,-2672.5,3706.2,3858.6,4008.5,1221.6
-2657.5,18.3,-837,-2672.1,3698.7,3860.5,4009,1217.3
-2653.8,20.9,-835.1,-2671.4,3694.7,3860.3,4008.3,1215.4
-2650.4,23.1,-835.5,-2669.4,3699,3860.8,4009.1,1219.9
-2647.8,24.5,-834.9,-2668.2,3699.7,3861.2,4010.3,1220
-2648.5,24.8,-832.1,-2668.3,3698.1,3860.5,4010.1,1218
-2656.2,24.6,-835.3,-2670.4,3697,3860.7,4008.9,1217.2
-2664.9,23.4,-836.8,-2673.5,3693.2,3859.8,4006.2,1214.3
-2663.3,23.2,-837,-2674.7,3689,3860.4,4006,1214.3
-2659.8,23.3,-838.3,-2674.1,3686.7,3861.1,4006.9,1216.2
-2656.6,22.6,-839.3,-2674.1,3685,3860.2,4006.4,1214.8
-2653.2,22.2,-840,-2675.2,3673,3857.9,4002.8,1200.8
-2652.4,20.1,-842,-2674,3668.4,3857.1,4004.1,1198.9
-2657.8,16.5,-845.2,-2674.7,3676.1,3855.3,4005.1,1206
-2661.1,14.6,-844.2,-2674.6,3679.3,3854.8,4004.9,1210.8
-2662.8,17.4,-840.6,-2672.3,3668.7,3858.1,4004.9,1208.5
-2667.4,19,-841.4,-2672.5,3666.8,3858.7,4003.9,1209.4
-2669.7,22.2,-844.2,-2672.1,3668.4,3857.3,4002.4,1211.7
-2673.2,25.2,-846.8,-2671.5,3670.2,3856.7,4001.1,1213.8
-2672.2,26.8,-846.5,-2671.2,3678,3856.4,4001.5,1219.4
-2668,24.9,-844.1,-2672.7,3683.1,3855.6,4001.3,1220.8
-2666.4,23.7,-839.8,-2672.4,3683.5,3854.7,3999.8,1219.7
-2663.8,21.7,-839.8,-2673,3685,3853.5,3999.9,1218.9
-2661.7,20.8,-840.5,-2675.5,3690.8,3851.9,4000.4,1219
-2659.9,22.1,-840.1,-2677.5,3692.4,3850.9,3998.4,1219
-2659.1,26.7,-841.3,-2673.8,3688.4,3851.4,3997.6,1216.9
-2656.9,26.5,-839.3,-2670.3,3684.2,3852,3997.5,1215.3
-2655.2,23.9,-833.6,-2669.8,3684.4,3852.2,3997.1,1217.8
-2654.9,23.7,-831.9,-2670.2,3683.9,3853.2,3997.7,1218.6
-2652.8,24.2,-834.6,-2671.1,3683.5,3854,3998.4,1218
-2650.5,22.7,-833.5,-2670.2,3684.7,3852.2,3996.3,1216.8
-2650.2,19.9,-831.9,-2670.2,3695.6,3852.3,3998.1,1223.6
-2649.3,20.2,-832.5,-2670.9,3697.2,3853.4,3999.2,1222.6
-2647.9,21.1,-829,-2670.7,3693.3,3853.8,3998.4,1218.9
-2649.4,23,-828.6,-2667.6,3690.3,3855.7,3999.7,1216.2
-2650.5,25.6,-832,-2664.8,3693.9,3857.7,4002.6,1219.7
-2651,27.7,-829.2,-2663.3,3693.6,3860.1,4005.1,1219.5
-2650.1,27.3,-826.7,-2662.4,3692.3,3861.5,4006.9,1217.3
-2653.8,26.3,-828.6,-2664.3,3691.3,3860.1,4006.9,1214.3
-2657,24.7,-832.8,-2667.8,3689.8,3858.7,4006.5,1210.2
-2657.9,23.3,-836.2,-2668.7,3689.5,3857.9,4006.1,1209.1
-2657.4,20.3,-836,-2669.2,3688.4,3857.2,4005,1208.7
-2655.6,18.1,-837,-2671,3684.3,3855.4,4003.1,1205.4
-2654.2,17.3,-835.4,-2674.9,3669.5,3853.1,3999,1190.6
-2656.9,16.7,-836.2,-2675.2,3661.1,3853,3998.7,1188.6
-2662.4,15.8,-839.7,-2675.1,3666.7,3851.1,3998.8,1195
-2664,15.9,-840.1,-2674.2,3670.3,3851.5,4000.6,1199.7
-2663.9,16.6,-838.8,-2672,3661.2,3852.8,4002.4,1197.7
-2664,15.9,-839.9,-2672.6,3663,3850.6,4000.6,1199.4
-2665.2,12.6,-842.1,-2676.4,3669.6,3849,3998.9,1203.6
-2665.2,10.2,-841.8,-2678.5,3674.8,3850,3998.8,1207.7
-2664.5,10.4,-843.2,-2677.4,3681.7,3850.3,3999.4,1215.1
-2666.1,12.7,-847.7,-2677.4,3685.3,3850.7,3999.8,1218.2
-2665.5,15.1,-845.1,-2678.2,3685.6,3851.6,4000.2,1217.3
-2666.6,17.2,-841.1,-2678.9,3685.1,3852.4,4001.4,1213.8
-2665.8,18.4,-841.8,-2679.1,3688.2,3852.1,4002.3,1211.9
-2663.5,16.9,-842.8,-2678.2,3692.1,3851.1,4001.4,1213.6
-2662,14.1,-843,-2678.7,3693.2,3849.9,4000,1213.6
-2660.3,13.6,-842.3,-2677.4,3691.6,3848.5,3998,1213.2
-2659.4,15.8,-842.7,-2673.1,3689.8,3850.1,3998.9,1215.9
-2661.5,17.1,-841.9,-2671.7,3687.9,3849.9,3998.5,1216.2
-2662.5,16.9,-839.9,-2671,3685.4,3851.2,3998.8,1214.6
-2661.3,16.8,-840.7,-2670.7,3685,3852.2,3999.4,1215.6
-2661.7,15.4,-841,-2672.1,3693.5,3853.2,4001.9,1224.5
-2660,17.3,-838.5,-2674,3694.3,3854.2,4002.4,1223.3
-2656,17.1,-836.5,-2675.3,3691.7,3853.6,4001.8,1218.8
-2654.5,16.5,-835.6,-2674.5,3689.2,3852,4000.4,1215.4
-2654.1,17.3,-836.6,-2670.2,3692.9,3851.3,4001.1,1218.7
-2655.3,20,-837,-2665.3,3691.5,3851.8,4001.4,1217
-2652.5,19.5,-833.1,-2662.4,3687.5,3852,4001.6,1213.5
-2651.4,17,-831.7,-2665.2,3684.8,3849.5,3999,1211.1
-2652.2,18.9,-832.2,-2668.1,3681.5,3847.8,3996.8,1208.1
-2651.6,22.3,-833.7,-2669.9,3679.6,3847.7,3996.7,1207.2
-2653.6,22,-832.7,-2670.2,3680.1,3847.7,3997,1207
-2655.8,21,-834.2,-2670.2,3679.2,3846.8,3995.8,1203.9
-2657.1,18.1,-835.1,-2672.9,3668.1,3844.1,3991.8,1192.6
-2658.5,15.9,-836.5,-2675.6,3662.2,3843.3,3991.2,1194.2
-2660,11.8,-839.2,-2680.1,3667.9,3841.4,3991.1,1202.3
-2659.2,11.7,-839.1,-2681.4,3671,3843.9,3993.9,1205.7
-2653.4,15.2,-833,-2676.8,3661.1,3848.6,3997.5,1201.3
-2652.2,14.7,-833.3,-2677.3,3663.1,3847.5,3997,1200.8
-2657,13.1,-837.8,-2678.7,3672.2,3846.5,3996.9,1204.7
-2658.9,12.4,-840.1,-2678.4,3678.7,3847,3998.2,1207.1
-2661.3,10.2,-841.8,-2679.6,3687.7,3847.3,4000.7,1211.1
-2663.5,11,-841.1,-2680.3,3694.1,3847.1,4001.4,1211.9
-2662.7,13.8,-839.8,-2680.1,3695.1,3847.7,4000.9,1210.7
-2659.6,15.8,-839,-2680.6,3695.3,3848.6,4001.4,1209.5
-2657,14.5,-835.7,-2680.6,3697.5,3851.6,4004,1210.1
-2656.8,13.8,-838.1,-2677.9,3700.3,3853.8,4005.8,1213.7
-2654.2,14.6,-839.5,-2675.7,3702,3855.1,4006.6,1215.3
-2651.7,14.2,-839.1,-2677.9,3703.8,3855.4,4005.6,1217.8
-2654,13.8,-839.1,-2679.1,3709.2,3855.7,4005.9,1223.7
-2654.9,15.2,-839,-2678,3712.4,3855.7,4006.5,1225.7
-2655.7,18.1,-837.2,-2675.8,3710,3854.9,4005.6,1223.9
-2658.2,20.9,-836.8,-2673.1,3707.4,3857.5,4007.1,1224.4
-2657.1,21.2,-836.9,-2671,3714.3,3858.7,4009.3,1232.4
-2651.9,24.3,-834.3,-2669.1,3715.3,3859.6,4010.6,1232.6
-2650,27.2,-833.2,-2667.3,3713.6,3860.9,4012,1231.3
-2647.2,27.1,-834.2,-2667.1,3710.7,3863.8,4014.3,1231.1
-2645.7,24,-834.7,-2669.8,3712.8,3865.3,4015.3,1236.2
-2645.4,24.3,-831.6,-2670,3710.5,3864.8,4013.2,1235.4
-2645.8,28.3,-830.7,-2666.8,3701.9,3865.8,4012.3,1229.6
-2647.8,31.5,-836.7,-2666.2,3690.9,3866.1,4011.2,1224
-2650.7,30.6,-839.4,-2668.9,3682.3,3864.2,4008.5,1219.5
-2651,27.3,-834,-2670,3680.2,3863.4,4007.9,1218.7
-2650.3,25,-832.4,-2669.7,3679.7,3863,4008.3,1218.4
-2648.9,24.5,-830.9,-2669.8,3678,3861.8,4007.6,1215.1
-2650.5,24.2,-832.1,-2672.3,3665.4,3859.1,4003.2,1200.6
-2655.6,24.5,-837.1,-2671.2,3656.3,3855.9,4000.2,1196.5
-2659,22.5,-839.7,-2672.5,3656.5,3851,3995.6,1198.8
-2659.9,22,-838.5,-2673.9,3651.9,3848.3,3992.1,1199.1
-2657.6,27.9,-838.5,-2670.7,3636,3850.8,3992.1,1193.8
-2656.6,28.9,-843.8,-2671.7,3634.8,3848.5,3990.1,1193.8
-2654.5,28.2,-843.6,-2673.8,3642,3845.1,3987.6,1196.3
-2654.8,26.5,-844.3,-2675,3649.5,3843.6,3986.8,1199.3
-2656.5,27.5,-847.1,-2675,3658.6,3841.8,3986.5,1203.5
-2657.6,29.7,-849.1,-2675.5,3663.1,3839.1,3985,1204.1
-2655.6,29.1,-849.5,-2676.9,3664.2,3837.1,3983.5,1202.9
-2655.8,26.6,-850,-2679.1,3663.8,3835.5,3982.4,1200.7
-2657.8,27.3,-851.5,-2677.5,3664.9,3836.6,3983.4,1200.5
-2660.8,26.8,-852.3,-2675.7,3664.4,3837.5,3982.8,1202.1
-2660.4,29,-847.9,-2675.8,3661.1,3836.7,3981.9,1200.8
-2654.3,33.1,-844.6,-2675.3,3660.2,3833.5,3980.5,1199.3
-2649.6,35.5,-845.9,-2674.9,3662.6,3832.4,3980.1,1200
-2649.2,39.7,-846.6,-2674.3,3662.3,3831.7,3978.7,1196.8
-2650.6,42.4,-848.1,-2674,3662,3830.4,3976.9,1193.1
-2650.9,45,-851.4,-2673.7,3664.1,3828.8,3975.9,1192.8
-2650.3,44,-853,-2674.1,3671.8,3828.4,3976.9,1199.6
-2646.7,43,-846.2,-2675.3,3669.3,3828.7,3976.6,1195.9
-2641.8,42,-841.3,-2675.2,3662.2,3828.1,3975.3,1189.1
-2637.8,44.5,-839.1,-2673.5,3658.9,3826.4,3974.4,1185.6
-2641.7,47.2,-840.4,-2672.1,3664.7,3827.2,3976.9,1190.7
-2645.9,50.2,-844.3,-2671.2,3665.5,3827.6,3977.9,1190.5
-2648.1,50.4,-845.7,-2674,3661,3825.1,3975.7,1186.8
-2649,47.7,-843.8,-2678.9,3657.8,3822.2,3973.1,1184.6
-2647.8,44.7,-848.3,-2682.8,3655.1,3818.4,3969.3,1181.2
-2646,42.5,-851.3,-2683,3652.6,3818.1,3968.4,1180.2
-2644.6,41.4,-851.3,-2683.6,3650.4,3818.4,3968.3,1179.7
-2641.6,45.3,-851,-2683.2,3647.3,3817.5,3966.5,1176.5
-2642.4,46.1,-848.8,-2683,3637,3813.7,3960.7,1163.3
-2647.3,42.4,-850.3,-2682.8,3633.6,3813.4,3961,1163
-2651,36.9,-856.6,-2684.9,3641.9,3813.6,3962.5,1171
-2649.1,35.9,-856.2,-2685.3,3646.8,3811.5,3961,1174.6
-2640.8,41.3,-851.6,-2683,3637.9,3811.9,3959.3,1170.5
-2636.6,41.2,-850.6,-2683.4,3637.9,3808.8,3955,1172.1
-2636.6,37,-852.2,-2685.1,3643.6,3810.3,3955,1177
-2635.7,35.4,-850.7,-2686,3648.7,3812.1,3956.2,1180.5
-2633,37,-848.9,-2685.3,3656.8,3812.7,3956.7,1186.5
-2632,37.5,-848.4,-2684.5,3662.1,3813.6,3957.4,1189.5
-2631.7,37.6,-849,-2682.8,3663.1,3814.6,3957.5,1189.5
-2630.8,34.8,-849.9,-2682.9,3661.2,3817.7,3958.8,1188.3
-2632.1,31.3,-848.5,-2683.7,3661.5,3818.3,3959.5,1187.9
-2636.4,31.4,-848,-2683.7,3661.4,3818.2,3958.2,1189.7
-2636.1,30.4,-846.1,-2684.6,3657.7,3819.2,3958.2,1189.6
-2634.8,30.3,-844.4,-2683.7,3655.6,3819.5,3958.8,1191.5
-2633,31.4,-843.8,-2683.7,3658.2,3820.1,3961.1,1196.4
-2628.2,32.4,-844.4,-2684.4,3661.1,3818.8,3961.7,1196.2
-2622.2,32.3,-844.2,-2684.3,3662.9,3817.8,3961.8,1193.8
-2620.8,30.8,-842,-2682.7,3665.5,3818.1,3963.7,1193.5
-2623.3,27.4,-841.2,-2683.6,3675,3819.1,3966.5,1201.8
-2627,23.1,-841.1,-2686.7,3675.5,3823.6,3969.4,1203
-2627.6,23.1,-841.4,-2687.4,3669.3,3826.4,3970.7,1201.8
-2624.2,25.1,-845.4,-2686.9,3663.4,3826.8,3971,1200.8
-2624.2,26.6,-849.6,-2685.3,3664.4,3828.4,3972.8,1204
-2623.4,26.9,-845.2,-2682.8,3661.4,3831.5,3975.1,1202.7
-2624.1,23.4,-840.4,-2682.4,3656.2,3832.1,3975.8,1199.4
-2626.8,18.8,-838.8,-2684.8,3654.5,3828.8,3974.3,1196.4
-2628.3,14.3,-840.8,-2688.7,3653.7,3825.6,3972.7,1192.6
-2628.7,9.1,-842.5,-2690.9,3654.3,3824.4,3971.9,1191.9
-2631.9,6.4,-842.4,-2692.2,3653.7,3824.1,3971.3,1192.5
-2634.4,6.1,-848,-2692.6,3650.7,3824.2,3970.4,1190.1
-2633.2,4.2,-848.7,-2693.8,3636.6,3823.4,3966.1,1176.9
-2633.9,3,-847.5,-2693.3,3628.4,3822.1,3964.5,1175.6
-2633.8,0.1,-850,-2694.7,3633.6,3819.7,3963.8,1180.8
-2632.5,-1.8,-850.5,-2695.2,3636.1,3819.5,3964.4,1183.2
-2632,0.8,-848.7,-2692.1,3628.1,3821.4,3966.3,1180.7
-2633,0.1,-849.8,-2694.4,3631.9,3818.4,3965.7,1182.2
-2636.6,-0.5,-851.2,-2697.5,3639.5,3816.1,3965.7,1184.9
-2637.7,-2.5,-852.8,-2699.3,3645.3,3814.3,3965.2,1186.6
-2636,-6.5,-852.2,-2699.7,3652.2,3815.6,3965.4,1191.3
-2635.8,-8,-854.2,-2701,3654.6,3818.1,3966.7,1194.2
-2635.9,-5.4,-852.6,-2700.9,3655,3819.3,3967.7,1194.6
-2635.5,-4.8,-851.7,-2699.7,3655,3820.5,3969,1193.4
-2633.4,-8.3,-848.8,-2700.5,3659.4,3819.2,3969.3,1193.9
-2634,-10.8,-849.9,-2700.6,3664.4,3818.5,3968.3,1197.6
-2635.5,-15.4,-853.8,-2701.6,3665,3819.6,3968.5,1198.4
-2635.7,-13.9,-857.6,-2700.9,3662.8,3822,3969.3,1199.2
-2634.3,-12.7,-859.1,-2701.5,3663.3,3821.7,3968.2,1203.4
-2633.7,-10.9,-856.8,-2701.2,3660.3,3822.8,3968.1,1204.1
-2635.2,-11.3,-856.3,-2701.8,3657.6,3823.5,3968,1204.9
-2638.7,-10.3,-856.2,-2701.1,3659.4,3825.1,3969.6,1209
-2643.6,-13.3,-857.8,-2701.7,3670.8,3826.7,3971.9,1219.7
-2642.6,-15,-859.6,-2702.1,3672.4,3829.1,3973,1219.7
-2641.1,-14.8,-860.7,-2702.1,3668.3,3831.6,3973.8,1215.2
-2638.6,-15.4,-858.9,-2704.5,3666.9,3830.5,3972.8,1210.7
-2637,-15.6,-857.1,-2706,3671.5,3831.1,3974.1,1212.5
-2637.1,-14.4,-856,-2707.1,3670.6,3831.7,3973.5,1210.8
-2639.9,-13.1,-854.2,-2705.2,3664.8,3834.9,3974.7,1208.3
-2645,-13.1,-856.4,-2704.5,3660.8,3835.2,3974.4,1207.2
-2644.2,-16.2,-860.1,-2706.3,3659.1,3832.5,3972,1203.3
-2641.2,-16.9,-858.6,-2706.1,3660.4,3829.4,3969.2,1201.2
-2638.8,-16.4,-857.8,-2705.8,3663.1,3826.8,3967,1201.5
-2637.2,-18.3,-855.3,-2706.7,3666,3823,3964.9,1200.3
-2635.9,-20.5,-854.3,-2709.2,3657.5,3819.6,3960.9,1187.1
-2637.4,-19.9,-861,-2709.1,3650.9,3818.5,3960.2,1186.1
-2640.1,-20.2,-859.6,-2709,3652.6,3817.2,3959.9,1191.5
-2646.1,-21.3,-856.9,-2709.1,3652.1,3819.4,3962.3,1195.8
-2646.2,-18.1,-857.1,-2704.3,3640.7,3825,3966.5,1194.6
-2647.2,-18.4,-859.2,-2705,3643.1,3823.6,3965.7,1197.5
-2647.9,-20.2,-861.8,-2708.3,3651.4,3823.2,3965.3,1202.8
-2649,-21.1,-863.3,-2709.9,3658.3,3823.9,3965.3,1206.7
-2650.4,-22.4,-865.7,-2711.5,3665.6,3824,3964.4,1211.6
-2651.6,-25.8,-866,-2711.3,3667.7,3826.2,3964.4,1212.7
-2651.9,-26.6,-865.3,-2710.5,3665.8,3826.7,3964.5,1210.4
-2649.6,-25.1,-862.5,-2710.9,3663.5,3827.1,3966.1,1206.4
-2649.8,-22.8,-862,-2711.4,3665.1,3829.4,3970,1204.3
-2651.4,-22.6,-863.2,-2712.7,3669.1,3831.7,3973,1206.1
-2652.5,-23.7,-863.1,-2714.2,3671.6,3832.1,3973.6,1206.9
-2651.3,-23.7,-863.2,-2714.2,3673.5,3831.2,3973.2,1207
-2649.6,-23.2,-867,-2713.8,3677.4,3832,3973.8,1209.1
-2651.6,-22.1,-867.7,-2710.3,3679.4,3830.4,3972.2,1208.7
-2647.9,-21.3,-865.4,-2708.9,3677.6,3828.6,3970.7,1204.9
-2642.6,-20.8,-862.1,-2710.3,3677.8,3826.9,3969.8,1204.3
-2640.8,-20.3,-860.7,-2710.2,3684.1,3827.5,3970.7,1209.5
-2639.2,-18.6,-857.7,-2708,3683.1,3830.8,3972.9,1206.5
-2641.2,-16.6,-855.6,-2706.2,3681.5,3832.1,3973.8,1203.2
-2642.7,-14.3,-853.7,-2704.9,3682.4,3831.9,3974.2,1203.5
-2641.6,-14.1,-855.6,-2704,3688.5,3832.6,3975.6,1209.9
-2640,-13.4,-855.8,-2704.4,3688.9,3833.6,3975.6,1209.7
-2638.1,-12.8,-853.8,-2703,3683.8,3834.7,3975.1,1205
-2638.1,-13.3,-852.8,-2703.4,3679.7,3832.4,3973,1203.2
-2640.3,-14,-854.2,-2704.7,3675.5,3830.1,3970.2,1201.4
-2639.8,-13,-854.4,-2703.1,3673.2,3831.2,3970.5,1201.3
-2639.2,-11.5,-855.6,-2701.3,3672.2,3834.1,3972.9,1200.8
-2639.3,-12.2,-856.3,-2702,3671.1,3834.8,3973.9,1198.2
-2639.1,-14.9,-857.4,-2706.4,3660.5,3832.3,3969.9,1185.4
-2640.3,-17.7,-859.4,-2708.7,3655.4,3831.7,3969,1184
-2645.2,-19.7,-862.3,-2709.4,3658.5,3828.9,3967.3,1188.4
-2647.8,-18.5,-862,-2707.9,3656.4,3827.8,3966.1,1190.7
-2644.5,-12.9,-857.6,-2703.9,3642.2,3831.7,3967.6,1187.4
-2644.7,-12,-859.1,-2703.3,3638,3832.9,3967.3,1187.8
-2648.4,-15.2,-859.2,-2702.4,3639.2,3832.1,3966.4,1190.1
-2649.2,-19,-858.5,-2703.6,3644.1,3831.9,3967.9,1193.3
-2650,-20.8,-861.3,-2706.2,3655.6,3829.6,3968.9,1198.9
-2652.1,-19.8,-864,-2707.9,3663.5,3828.8,3968.7,1201.3
-2649.2,-21.1,-862.8,-2709.6,3666.7,3827.3,3967.3,1201.2
-2648.6,-22.9,-862,-2711,3668.7,3826.4,3966.3,1201.1
-2650.3,-20.7,-860.9,-2710.5,3671,3826.4,3967.7,1201.4
-2649.1,-18.9,-862.1,-2710,3671,3827.2,3967.9,1202.8
-2643.3,-16.6,-863.7,-2707.4,3667.8,3827.8,3968.8,1201.4
-2640.8,-16.8,-861.4,-2706.4,3667.3,3827.5,3970.1,1201
-2643.8,-15.9,-861.6,-2704,3671.2,3828.8,3971.5,1205
-2647.4,-15.5,-861.4,-2703.4,3674.1,3830.2,3972.5,1207.5
-2649.4,-17,-860.9,-2704.8,3674.3,3830.7,3972.5,1208.9
-2651,-17.1,-862.5,-2705.8,3676.8,3831.2,3973.2,1213.6
-2652.9,-16.6,-864.7,-2706.6,3687.1,3832.2,3975.2,1225.2
-2652.4,-16.6,-861.2,-2706.1,3688.8,3835.5,3976.7,1226.3
-2652.4,-14.3,-857.3,-2705.3,3685.1,3838.1,3978.3,1224.2
-2653.9,-10,-855.4,-2703,3684,3840,3980.7,1223.5
-2653.7,-10.1,-853.2,-2703,3689.4,3839.4,3982.2,1226.6
-2649.5,-10.9,-853.5,-2701.2,3689.9,3839.4,3982.5,1225.2
-2641.9,-9.9,-857.2,-2697.5,3685.9,3840,3983,1221.7
-2637.8,-11.8,-861.1,-2697.9,3683,3836.1,3980.2,1218.1
-2636.7,-14.1,-860.6,-2702.8,3678.9,3832.6,3976.2,1213.2
-2638.9,-11.6,-860.2,-2703.8,3673.3,3832.7,3974.6,1210.7
-2641.5,-7.7,-858.3,-2701.3,3667,3834,3974.3,1208.6
-2642.5,-7,-856.4,-2700.7,3661.9,3833.7,3972.9,1203.5
-2641.5,-10.4,-854.5,-2703.9,3652.3,3830.3,3969.2,1188.6
-2641,-11.8,-853.3,-2705.6,3650.6,3827.6,3968.2,1187.6
-2645.1,-14.3,-855.5,-2707.6,3657.6,3825.2,3967.6,1192.9
-2645.7,-14.3,-855.2,-2706.6,3658.9,3826.5,3969.5,1195.1
-2645,-14,-852.4,-2704.6,3648.3,3829.3,3971.3,1191.7
-2645.7,-14.3,-856.7,-2705.3,3648.6,3828.7,3970.4,1191.5
-2649.9,-17.3,-859.8,-2705.9,3654.1,3829.5,3971.5,1194.7
-2652.6,-16.6,-861.5,-2706,3659.4,3829.4,3972.3,1197.9
-2651.9,-18.3,-862.7,-2708,3666.9,3829.6,3973.1,1203.3
-2650.9,-16.7,-863.7,-2709.6,3670.2,3831.1,3973.8,1204.5
-2650.3,-15,-863.6,-2709.5,3670.7,3830.6,3973.5,1203.9
-2650.4,-15.6,-866.1,-2709,3673.6,3829.8,3972.4,1204.7
-2650.1,-18.2,-866.9,-2708.3,3680,3829.5,3973,1206.8
-2650.8,-19.3,-867,-2707.9,3683,3829.1,3972.1,1209.9
-2653,-15.4,-864.9,-2704.1,3679.2,3831.1,3973.5,1208.9
-2655.3,-12,-864.6,-2700.4,3675.4,3831.5,3974.5,1207
-2649.8,-11.5,-861.6,-2700.4,3675.4,3831.2,3974.7,1208
-2642.7,-12,-857.2,-2699.8,3675,3831.2,3975.3,1206.3
-2639.4,-11.1,-857.5,-2699.6,3673.1,3832,3976,1204.2
-2640.1,-11.2,-861.3,-2701.2,3675.4,3830.6,3976.1,1206
-2641.1,-11.5,-862.8,-2702.8,3686.5,3830.6,3978.5,1214.5
-2640.3,-12.3,-857.4,-2702.8,3687.3,3831.3,3978,1212.9
-2641.9,-11,-853.5,-2701.3,3679.8,3832.8,3977,1207.5
-2641.3,-7.5,-852.4,-2699.6,3672.3,3836.1,3978.6,1204.9
-2641.4,-5.6,-856.3,-2698.9,3674.2,3837.4,3980.1,1209.3
-2639.7,-5.2,-854.6,-2696.9,3674.9,3838,3980.9,1209.9
-2637.7,-6.3,-851.7,-2695.3,3673.6,3838.8,3981.7,1207.2
-2639.7,-6.7,-851.5,-2696.9,3673.3,3837.1,3980.9,1205.6
-2640.8,-9.8,-856.3,-2699.2,3672.8,3834.7,3978.6,1204
-2638.9,-11.2,-857.4,-2699.9,3672.3,3833.6,3977.8,1203.8
-2641.6,-10.2,-859,-2700.9,3671.6,3833.6,3978.1,1203
-2644.6,-8.2,-860.1,-2701.3,3668.5,3834.5,3978.9,1197.9
-2646.5,-9,-861.9,-2703.8,3654.6,3832.5,3976.3,1181.3
-2646.2,-11.9,-862.5,-2703.3,3646.2,3832.7,3976.9,1178.4
-2650.1,-14.9,-862.7,-2702.1,3649.6,3831.6,3977.5,1182.8
-2651.6,-15.8,-860.7,-2701.3,3652.3,3829.7,3977.1,1185.9
-2648.5,-13.2,-856.7,-2701.2,3644.8,3829.9,3977.6,1183.3
-2646.4,-11.4,-862,-2702.2,3647.8,3828.6,3976.6,1185.6
-2648.9,-11.2,-865.5,-2704.7,3655.4,3826.9,3974.8,1191.2
-2651.6,-11,-865.4,-2707.4,3660.4,3826.6,3973.2,1194.5
-2649.8,-12.1,-865,-2709.1,3667.2,3826.9,3973.5,1199.4
-2650.8,-12.1,-863.2,-2711.6,3670.2,3827.7,3974.2,1202.4
-2652.4,-11,-860.1,-2709.4,3670.6,3829.8,3975.6,1203.8
-2654.1,-11.6,-859.8,-2708.1,3673.8,3830.4,3977.4,1204.2
-2649.3,-11.1,-862.8,-2707.7,3680.5,3830.5,3979.7,1204.6
-2643.2,-13.3,-866,-2709.1,3686.9,3829.9,3979.5,1207.1
-2640,-14.3,-867,-2708.7,3689.9,3829.6,3978.7,1207.7
-2638.7,-12.6,-861.9,-2708.1,3691.4,3829.8,3978.2,1209.6
-2641.5,-10.9,-856.7,-2705.7,3693.5,3831.3,3979.5,1213.7
-2641.8,-6.9,-855.7,-2701.2,3690.3,3832.1,3979.8,1213.1
-2640.3,-3.5,-855.5,-2698.5,3684.3,3834.4,3981.2,1209.9
-2640.5,-0.7,-852.3,-2698.2,3684.5,3834.6,3983.3,1211.1
-2640.2,-1.9,-850.6,-2696.4,3695.4,3834.7,3985.5,1219.6
-2636.2,-1.1,-851.1,-2692.9,3696.5,3836.8,3986.4,1217.6
-2632.2,0.1,-848.8,-2690.4,3691.6,3837.1,3985.7,1212.3
-2630.5,0,-850.3,-2690.7,3688.8,3836.8,3984.7,1211.2
-2630.7,0.2,-851.9,-2690.6,3692.3,3838.9,3986.6,1217.5
-2629.4,3.8,-848.8,-2688.3,3689.2,3841.2,3988.1,1216.8
-2634.4,6.3,-846.4,-2686.6,3683.1,3843.3,3989.2,1213.6
-2637.9,9,-845.5,-2685.8,3679.7,3842.7,3989.1,1212
-2638.7,4.2,-845.2,-2689.8,3678.4,3839.1,3986.3,1209.4
-2636.4,1.6,-845.8,-2689.9,3677.7,3838.2,3986.5,1208.2
-2634.5,-1.1,-849,-2691.4,3678.8,3839,3987.5,1209.7
-2636,-3.5,-850.8,-2693.6,3679.1,3838.7,3987.2,1209
-2637.8,-4.6,-850.9,-2696.9,3667.2,3838.8,3984.6,1195.5
-2641.7,-3.8,-853.8,-2699.3,3660.6,3838.8,3985.3,1193.7
-2645.1,-7.5,-856.5,-2702.2,3663,3838.2,3985.8,1198.4
-2645,-8.7,-856.8,-2703.3,3660.8,3838.8,3985.5,1199.9
-2639.3,-6.7,-852.2,-2700.8,3648.6,3843.6,3988.7,1195.5
-2643.9,-6.5,-851.1,-2699.8,3647.2,3843.9,3988.4,1194
-2652.7,-6.4,-854.1,-2699.5,3654.6,3842.3,3987.9,1198.2
-2651,-4,-857.9,-2697.9,3664.2,3837.5,3984.3,1203.4
-2644.9,-5,-860.8,-2699.8,3677.2,3835.3,3983.6,1210.9
-2640.6,-8.1,-862.5,-2703.3,3684.6,3835.2,3983.5,1213.9
-2641.1,-9.3,-864.1,-2703.8,3684.1,3839.6,3984.4,1213.9
-2644.1,-7.6,-865.1,-2700.9,3680.9,3842.3,3985.6,1212.9
-2643.7,-4.4,-863.9,-2695.4,3681,3840.8,3985.5,1211.1
-2641,-1.6,-861.9,-2691.2,3681.3,3838.3,3982.9,1211
-2639.3,0.7,-856.2,-2689.5,3680.2,3837.2,3981.1,1209.6
-2639.5,4,-852.7,-2689.2,3679.9,3837.3,3980.9,1209.3
-2641.8,6.8,-852.4,-2689.3,3682.1,3836,3979,1211.8
-2639.7,7,-851.1,-2690.2,3682.2,3836.2,3978.7,1212.1
-2638.7,3.8,-851,-2690.9,3680.2,3837.7,3979.8,1212.1
-2640,3.6,-851.7,-2689.8,3680.1,3840.7,3982.1,1214.2
-2643.1,3,-854.2,-2690,3689.7,3840.9,3983.6,1222.7
-2641.4,5.4,-853.3,-2688.3,3691.9,3844.2,3985.2,1221.2
-2641.2,7.8,-851.1,-2686.6,3688.5,3847.4,3987,1216.7
-2644.5,10.1,-850.3,-2685.4,3688.5,3848.6,3989.1,1215.8
-2646.1,9.2,-851.2,-2684.5,3693.4,3850.5,3992.1,1222
-2643.8,6.8,-852.3,-2686,3694,3849.2,3991.6,1222
-2640,7.3,-851.6,-2685.9,3691.5,3850.6,3992.6,1219.8
-2640.2,5.2,-850.9,-2688.1,3689.1,3848.4,3990.4,1218.1
-2642.1,3.9,-850.8,-2689.9,3686.7,3846.9,3988.5,1214.9
-2640.3,4.8,-849.1,-2688.9,3684.4,3846.6,3988,1213
-2639.6,5.7,-847.5,-2687.9,3684.1,3845.9,3987.4,1213.3
-2638.8,6.7,-847.1,-2688.1,3683.2,3844.2,3985.5,1209.1
-2638.9,5.7,-847.7,-2692,3672.6,3843.1,3982,1195.1
-2645.9,5.1,-851.3,-2693.6,3668.9,3841.8,3981.1,1196.8
-2654.9,5.3,-854.2,-2690.9,3674.1,3841,3980.5,1205.3
-2653.7,4.3,-855,-2688.4,3673.4,3839.8,3979.6,1207.7
-2646.3,7.7,-852.8,-2682.9,3660.4,3842.6,3980.6,1203.5
-2642,5.2,-852.9,-2682.9,3659.3,3840.7,3979.4,1204.6
-2640.7,2.5,-851.5,-2683.7,3664.8,3840.7,3980.9,1209.2
-2641.5,1.8,-851.8,-2686.8,3671.9,3839.9,3980.9,1213.4
-2641.8,4.3,-850.7,-2688.8,3680.8,3838.9,3980.6,1217.1
-2641,5.4,-852,-2689.9,3685.2,3838.6,3980.7,1216.4
-2638.5,4.4,-854.2,-2689.8,3684.9,3839.6,3981.3,1213.7
-2638.4,3.1,-853.7,-2688.9,3683.2,3839,3979.5,1211
-2639.2,3.5,-853,-2688.2,3684.1,3838.9,3978.8,1210
-2639.8,4.7,-851.6,-2687.5,3682.1,3840.2,3978.3,1209.7
-2641.1,6.8,-847.9,-2685.7,3679.7,3841.9,3978.4,1209
-2640.3,7.7,-845.8,-2685.4,3681.1,3843.3,3980.1,1210.9
-2638.9,7.4,-848.8,-2685.5,3686.4,3843.4,3981.2,1214.7
-2638.1,7.5,-851.1,-2685.5,3689.2,3845.6,3982.7,1215.8
-2638.6,6.9,-851.7,-2686.4,3689.6,3846,3983.3,1215
-2639.7,6.7,-852.2,-2686.2,3690.3,3845.2,3982.9,1215.5
-2643.1,6.3,-853.8,-2686.3,3698.9,3844,3982.7,1224.2
-2640.1,9.2,-851.4,-2684.9,3699.3,3846.8,3983.6,1223.6
-2639.6,11.2,-850.8,-2685.2,3695.1,3848.5,3984,1221.3
-2642.7,12.2,-852.7,-2685.2,3692.7,3851.8,3986.9,1222.3
-2640.5,9.5,-852.4,-2684.8,3699.8,3854.1,3991.2,1230.6
-2637.7,11.3,-853.7,-2682.3,3703.9,3853.5,3992.1,1233.4
-2637.4,12.6,-855,-2678.8,3701.5,3854.9,3993.8,1232.2
-2640.6,11.8,-852.5,-2680.9,3698.9,3851.8,3992.4,1230.9
-2640.7,10.5,-848.6,-2685.8,3695.4,3847.5,3988.1,1226.2
-2635.6,8.8,-845.5,-2688.2,3691.7,3846.4,3986.9,1221.3
-2630.8,8.4,-843.1,-2688.4,3690,3847,3987.4,1218.7
-2632.9,9,-843.1,-2686.9,3688.7,3848.7,3988.3,1215
-2637.4,10.6,-844.6,-2686.4,3677.1,3849.6,3987,1200.8
-2638.5,9.5,-847.4,-2686.4,3672.3,3848.4,3986.7,1200.5
-2640.6,7.6,-849,-2686.8,3679.5,3846,3985.2,1208.2
-2640.2,6.2,-848.6,-2687.4,3684,3845.5,3984.5,1214.4
-2637.4,8.2,-843.8,-2684.3,3673,3848.4,3985.4,1211.4
-2639.6,10.6,-845.4,-2681.8,3669.5,3847.5,3983.6,1210.4
-2640.5,13.8,-847.3,-2680.6,3671.7,3847.5,3982.7,1213.2
-2640,13.8,-850.4,-2681.6,3676.1,3847.1,3982.1,1216.3
-2639.5,12.9,-851.7,-2681.7,3684.2,3848.3,3984.4,1222.4
-2638.4,13.4,-850.6,-2681.7,3690.5,3848.1,3985.1,1225.1
-2635,12.5,-845.9,-2683.9,3693.6,3846.6,3984.6,1224.1
-2631.7,11,-846.9,-2690.9,3697.6,3846.4,3985.9,1223.4
-2630.8,10.9,-847.2,-2695.9,3703.3,3847.3,3988.8,1223.5
-2633.1,11.5,-844.6,-2689.9,3703.5,3846.6,3987,1224.1
-2632.4,14.3,-847.4,-2682.6,3698.9,3847.1,3985.9,1222.7
-2631,17.3,-845.8,-2679.2,3693.9,3847.1,3985.2,1221.2
-2631.2,22.4,-845.8,-2675.9,3692.5,3849.1,3986.1,1222.9
-2630.3,23.6,-842.5,-2677,3692.2,3849.2,3986.9,1223.3
-2631.1,24.6,-836.6,-2677.9,3689.8,3849.3,3987.4,1220.7
-2632.4,24.6,-836.7,-2675.4,3690.5,3849.9,3988.3,1221.3
-2633.2,22.8,-839.4,-2673.8,3701.3,3850.2,3989,1229.4
-2632.5,22.4,-840.9,-2673.3,3703.1,3850.4,3988.7,1229
-2630.6,23.7,-840.1,-2673.4,3699.4,3851.5,3989,1227.7
-2627.5,26.1,-838.2,-2673.1,3695.5,3852.3,3989.4,1226.2
-2624.1,28.6,-836,-2671.1,3696.9,3852.7,3990.3,1229.2
-2621.9,28.4,-833.8,-2670,3696.7,3854.5,3991.8,1228.8
-2622.3,27.8,-834.2,-2669.2,3692.6,3856.3,3993.7,1224.8
-2624.5,27.3,-838.5,-2670.3,3691.1,3855.7,3993.4,1221.1
-2626.6,27.2,-842.1,-2672.9,3689.9,3853.8,3991.6,1218
-2629.7,26.2,-840.4,-2673.5,3691,3853.3,3990.8,1219
-2630.5,24.8,-838.5,-2674.8,3691.6,3851.7,3989,1220.7
-2628,26.9,-836.8,-2675.2,3689.8,3849.5,3986.7,1218.7
-2625.3,27.5,-835.8,-2675.9,3675.3,3847.7,3982.9,1203.9
-2625.9,25.4,-838.1,-2675.3,3667.8,3847,3982.4,1202.5
-2628.6,22.8,-839.9,-2675.4,3673,3847,3984.1,1209.5
-2631.3,21.7,-839.8,-2677,3676.4,3848.2,3987.1,1212.3
-2630.6,24.5,-836.5,-2675,3668.7,3850.9,3989.5,1209.5
-2629.2,21.8,-837.3,-2675.5,3670.2,3850.5,3989.1,1211.5
-2634.1,20,-839.9,-2675.6,3676,3850.1,3989.4,1215.8
-2637.2,19.2,-846.5,-2675.5,3678.8,3850,3989.4,1218.9
-2637,23.2,-849.2,-2673.9,3681.8,3848.3,3988.3,1221.6
-2636.4,23.5,-843.9,-2675.1,3682.3,3846.5,3986.3,1220.5
-2636.7,24.7,-842.1,-2677,3683.2,3848.4,3987.8,1221
-2634.3,26.8,-842.6,-2677.6,3686.4,3848,3988.4,1222.1
-2632.4,27.8,-845.3,-2676.4,3692.2,3847.2,3989.4,1222.3
-2633,26.4,-843.1,-2675.3,3696.5,3848.7,3990.4,1224.5
-2632.9,24.9,-843.2,-2676,3695.6,3849.2,3989.9,1224
-2631.5,23.4,-839.8,-2676.6,3693,3848.4,3989,1224.2
-2630,22.5,-839.9,-2676.1,3692.8,3850,3989.8,1226.2
-2629.5,23.1,-837.1,-2677.7,3689.1,3852,3990.7,1224.1
-2629.7,27,-834.8,-2679.3,3683.8,3852.8,3990.8,1220.5
-2631.8,28.3,-835.2,-2678.4,3685.9,3854,3994.1,1222
-2633.4,27.4,-837.1,-2679,3699.4,3854.5,3997.5,1232.4
-2632.5,28.9,-838.8,-2680.3,3702.5,3854.6,3996.9,1233.5
-2629.2,28.8,-840.2,-2678.3,3700,3855,3995.9,1230.8
-2627.5,25.5,-841.4,-2675.7,3697.6,3857.3,3996.1,1229.2
-2628.5,19.8,-840.5,-2674.4,3701.6,3859.4,3998.9,1234.7
-2627.3,15.8,-838,-2674.6,3699.3,3860.1,3999.9,1234.4
-2624.6,19,-834.1,-2672.3,3691.9,3859.3,3998.3,1229.1
-2624.5,26.8,-834.6,-2668.4,3685.2,3854.3,3993.9,1222.2
-2625.2,35.4,-836,-2665.9,3680.5,3846.7,3988,1216.2
-2624.4,42.8,-834.7,-2664,3677.8,3843.7,3986.1,1213
-2627.6,43.9,-834.4,-2664.5,3677.7,3845.2,3987.4,1213.8
-2632.3,40.7,-835.6,-2667.8,3677.6,3846.5,3988.3,1211.4
-2635.1,34.7,-838.5,-2671.9,3666.5,3845,3984.7,1199.1
-2636.8,29.3,-841.8,-2673.2,3660,3845.5,3984.4,1199.2
-2638.4,30.3,-842,-2672.6,3662.8,3842,3982,1204.1
-2638.5,36.5,-843.4,-2671.8,3662.7,3838.9,3980.2,1205.4
-2634.7,46.5,-838.7,-2668.1,3649,3841,3982.1,1199.1
-2635.7,52.8,-847.7,-2665.3,3647,3841.5,3983,1197.2
-2642.9,50.5,-844.3,-2669.5,3652,3840.3,3982.9,1198.8
-2640.9,45.5,-840.3,-2675.5,3658.2,3839.4,3982.7,1200.8
-2634.9,41.2,-839.6,-2678.2,3667.8,3833.1,3979.4,1203.2
-2630,47.7,-837.8,-2673.1,3669.7,3828.9,3974.7,1201
-2630.1,54,-837.1,-2668.6,3667.7,3826.3,3971,1199.2
-2631.7,54,-838.2,-2666.5,3668.6,3828.7,3974.1,1198.5
-2631.4,55.1,-839.8,-2664.6,3673.6,3830.4,3977.2,1201.1
-2630.2,56.7,-838.8,-2664.1,3677.1,3830.3,3977.6,1204.4
-2629.5,57.9,-838.5,-2664.6,3677.8,3830.9,3977.6,1204.6
-2629.8,58.7,-838,-2662.6,3678.4,3831.9,3977,1205
-2631.8,61.9,-837.7,-2661.5,3679.2,3831.5,3975.9,1207.3
-2633.7,67.8,-839.7,-2661.4,3676.7,3831,3974.6,1207.4
-2633.4,71.5,-836.1,-2660.5,3671,3828.8,3971.6,1205.3
-2632.1,69.6,-833,-2657.1,3668.9,3830.2,3972.4,1207
-2636.5,68.4,-838.1,-2652.7,3677,3832.6,3975.7,1217.4
-2638.1,70.9,-837,-2650.6,3677.7,3833.3,3977.3,1217.3
-2634.8,73.6,-832.4,-2650,3674.7,3833.4,3979.3,1212.4
-2633.4,75.1,-831.3,-2651.7,3671.6,3834.8,3980.7,1208.4
-2635.7,74.3,-829.1,-2654.4,3676,3835.4,3981.1,1211.7
-2635.8,75.4,-826.7,-2653.4,3676,3835.7,3980.7,1211.6
-2634,75.5,-828.5,-2651,3670.8,3837.8,3980.5,1209.1
-2637.4,75.9,-830.8,-2652.1,3665.6,3837,3978.6,1204.8
-2639.5,74.7,-833,-2655,3659.4,3836.6,3977.3,1199.1
-2639.2,75.2,-833.7,-2654.8,3657.5,3836.8,3977.4,1196.9
-2636.8,74.7,-834,-2654.2,3658.1,3838.2,3978.9,1196.5
-2634.3,70.6,-833.5,-2654.3,3656.6,3835.1,3975.7,1194.7
-2636.3,67.1,-838.2,-2657.9,3647.3,3832.3,3971.4,1184.9
-2635.9,69,-840.7,-2658.1,3641.9,3828.2,3967.7,1184.2
-2637.2,64.8,-844.8,-2660.9,3647,3824,3965.7,1189.4
-2640.4,62.1,-843.8,-2662.6,3645.6,3826.3,3967.6,1190.9
-2640.7,65.6,-839.8,-2657.3,3630.6,3832.1,3972.2,1185.2
-2636.5,65.8,-839,-2657.7,3626.4,3830.6,3971,1183.5
-2636.8,63,-841.4,-2661.3,3632.4,3832.9,3973.5,1188.3
-2644.9,62.4,-847.9,-2661.4,3641.5,3832.9,3974.3,1193.7
-2649.5,61.3,-850.8,-2662.6,3654.6,3832.7,3975.4,1200.2
-2652.1,61.5,-854,-2662.1,3664.3,3832.2,3975.4,1203.9
-2653.4,62.7,-847.9,-2663.8,3666.4,3831.5,3973.4,1204.4
-2653,59.7,-841.6,-2666.5,3665.7,3829.5,3971.1,1202
-2656.5,59.6,-841,-2662.8,3665.7,3831.6,3972.5,1201
-2655.2,59.9,-841.2,-2664.4,3666.4,3832.8,3973.6,1204.9
-2649.7,62,-840.5,-2665.9,3666.1,3831,3972.4,1205.2
-2646.2,63.5,-843.3,-2662.5,3666,3831.9,3972.5,1205.4
-2644.6,64.3,-842.4,-2661.6,3671.2,3831.6,3973.2,1211.4
-2643.8,63.8,-842.9,-2661.5,3673.1,3831,3973.3,1211.9
-2642.1,66.3,-840.7,-2659.7,3671.4,3831.1,3973.7,1209.1
-2644.1,66.7,-839.9,-2659.2,3672.8,3832,3975.8,1209.9
-2644.9,63.3,-840.8,-2659.1,3681.7,3833.9,3978.3,1218
-2642,61.2,-839,-2658.5,3680.2,3836.4,3977.7,1216.5
-2636.9,64,-837.3,-2657.5,3674.2,3837.5,3977.3,1211.2
-2635.7,67.4,-837.1,-2656,3672,3839.2,3980.4,1208.6
-2638.5,69.7,-837.5,-2653.9,3677.8,3840.6,3984.1,1212.5
-2635.6,69.4,-833.7,-2657.5,3677.8,3842.6,3986,1211.9
-2632.9,67.7,-830.9,-2660,3672.8,3842.4,3985.2,1207.9
-2635,66.3,-835.9,-2661.7,3669.7,3841.8,3983.6,1205.6
-2642.1,62.4,-839.8,-2664.6,3667.9,3839.2,3981.2,1204.2
-2645.6,63.9,-842.5,-2662.9,3665.4,3839.2,3980.9,1203.2
-2648.5,65.6,-843.3,-2660.8,3661.4,3840,3979.9,1201.5
-2649.5,66.6,-843.5,-2659.5,3656.2,3843.7,3980.7,1199
-2652.2,66.2,-845.4,-2665.4,3642.8,3845.2,3979.6,1186.6
-2652.6,63.4,-850.3,-2668.4,3635.7,3843.8,3978.1,1185.1
-2650.5,57.1,-853,-2671.3,3641,3838.2,3975.2,1190.6
-2648.7,58.1,-851.5,-2671,3642,3835.2,3973.2,1192.9
-2647.4,60.3,-846.1,-2667.6,3628.5,3836.2,3972.8,1189
-2650.2,56.5,-848.4,-2669.3,3626.4,3835.7,3972.2,1189.4
-2653.4,56,-849.8,-2670.4,3628.2,3832.6,3970.7,1189.2
-2655.8,55.8,-849.5,-2672,3632,3831,3970.1,1190.6
-2656.9,54.9,-850.4,-2672.4,3640.1,3831.5,3971.2,1195.4
-2657.4,55.7,-851.1,-2671.5,3645.5,3831.2,3970.6,1196.9
-2659.7,54.1,-854.5,-2671.4,3648.5,3831.3,3970.8,1197.3
-2659.7,50.8,-859.7,-2673.4,3651.2,3829.9,3970.3,1196.8
-2657.2,53.5,-856.1,-2672.9,3653.2,3826.4,3968.7,1194.4
-2657.1,52.3,-853.7,-2675.2,3654.4,3825.5,3967.8,1195.8
-2655.5,49.7,-850,-2677.1,3650.6,3827,3966.7,1193.1
-2653.9,48.7,-849.3,-2676.6,3645.2,3828.5,3966.2,1189.6
-2655.7,48.4,-851.4,-2675.8,3644.8,3829.6,3967.6,1191.1
-2656.4,51.6,-852.2,-2673.5,3644.8,3827.7,3966,1190.4
-2652.6,53.4,-853.3,-2673.5,3644.7,3827.5,3966.1,1188.8
-2653.1,52.6,-852.5,-2672.8,3647.2,3826,3964.5,1191.1
-2654.1,48.7,-850.4,-2673.4,3657.9,3824.9,3963.8,1200.5
-2656,48.6,-850.2,-2674.3,3658.2,3826.1,3963.9,1198.8
-2655.8,50.1,-846.6,-2673.8,3652.4,3826,3962.9,1193.9
-2654.9,51.9,-844.9,-2671.4,3648.6,3825.1,3961.6,1192.2
-2654.6,55.3,-845.7,-2669.1,3653.5,3823.1,3960.4,1196.9
-2652.7,59.1,-847.9,-2668.6,3654.7,3825.7,3963.2,1197.5
-2650.5,60.4,-848.8,-2669,3652,3827,3965.1,1195
-2652.5,60,-851.5,-2670.4,3652.1,3826.1,3964.7,1193.9
-2658.1,58.4,-855.1,-2673.9,3653.6,3823.7,3963.7,1193.1
-2661.5,60.4,-857.2,-2674.2,3652.1,3823.3,3962.7,1191.8
-2661.5,59.9,-856.4,-2674.8,3649.4,3822.9,3962.5,1190.8
-2662.1,56.7,-855.2,-2676.6,3645,3821.7,3961.4,1187.6
-2661.5,53.9,-853.7,-2678.7,3630.4,3820.4,3956.8,1174
-2659.5,52.2,-853.1,-2680.5,3622.7,3817.3,3953.3,1172.8
-2656.6,53.2,-855.5,-2680.9,3626.1,3814.9,3952.1,1177.7
-2657.8,53.8,-854.5,-2679.4,3628.2,3816.8,3954,1180.6
-2660.6,53.8,-849.9,-2678.7,3620.7,3820.1,3956.8,1177.2
-2664.6,54.6,-853.1,-2677.9,3622.8,3819.7,3956.7,1177.8
-2667.3,56.2,-857.8,-2676.8,3628.3,3815.9,3953.4,1180.5
-2666.1,54.9,-859,-2678.4,3632.8,3813.8,3950.9,1182.4
-2663.7,55.1,-860.1,-2679.1,3639.9,3813.5,3952.4,1185.9
-2664.7,57.5,-862.5,-2678.2,3643.3,3813.2,3952.2,1187.1
-2662.4,62.4,-862.9,-2675.6,3644.3,3812.7,3950.6,1185.8
-2658,63.8,-859.9,-2675.6,3648.1,3811.9,3951.1,1185.2
-2652.5,64.3,-858.2,-2674.9,3654.4,3810.2,3951.4,1185.2
-2648.8,64.9,-857.5,-2674.3,3659.3,3808.6,3950.8,1186.3
-2646,63.8,-855.7,-2675.7,3661.7,3808.7,3951.8,1187.2
-2645.3,65.1,-852.4,-2676.2,3662.5,3808.9,3952.1,1189
-2645.9,66.3,-851.2,-2676.2,3663.6,3811.1,3953.3,1194.1
-2646.1,69.4,-849.8,-2675,3661.5,3813.6,3954.4,1196.1
-2646.5,69.5,-848.5,-2674.7,3658.3,3816.6,3957.4,1196.4
-2646.4,69.7,-847.8,-2672.7,3656.3,3819.2,3961,1198.2
-2645.4,69.9,-848.2,-2671.7,3664.9,3818.4,3963.9,1207.1
-2644.9,77,-847.1,-2668.7,3666.8,3815.8,3963.2,1206.7
-2641.3,89.3,-842,-2665.3,3662.4,3810.5,3957.9,1200.5
-2642.4,92.8,-838.2,-2664.3,3661.8,3809.4,3956.4,1197.2
-2644.4,93.6,-838.5,-2661.7,3666.9,3812.8,3958.5,1201.5
-2640.3,92.6,-837.1,-2660.2,3665.9,3815.9,3959.8,1201.4
-2634.5,91.9,-835.9,-2660.3,3661.7,3817.7,3960.9,1198
-2630.8,92.6,-835.4,-2659.7,3656.6,3817.2,3960,1192.4
-2631.9,95.2,-838,-2658.9,3651.9,3814.1,3957.6,1185.8
-2632.5,99.5,-839.9,-2657.3,3651,3813,3957.8,1183.1
-2632.3,101.3,-835.4,-2659,3652.4,3811.1,3956.2,1182.2
-2630.6,101.1,-830.4,-2662.3,3652.5,3810.1,3954.5,1179.2
-2630.7,96.8,-829,-2665.8,3641.1,3808.1,3949.9,1164.8
-2635.7,97.3,-829.2,-2664.8,3634.6,3807.7,3949.2,1164.4
-2639.9,99.8,-835.4,-2663.4,3638.6,3807.9,3950.1,1172.2
-2638.6,102.3,-840.3,-2662.5,3638.2,3809.1,3951,1176.3
-2632.3,107.5,-833.4,-2660.8,3627.6,3812.2,3953.2,1173.7
-2630.4,106.4,-833.3,-2661.8,3630.8,3812.2,3954.6,1175.9
-2632.8,102.3,-831.9,-2663.6,3641.6,3808.4,3952.5,1181.9
-2630.2,106.8,-830.4,-2660.4,3649.7,3805.5,3949.5,1184.3
-2633.4,111.1,-833.9,-2658,3659.7,3805,3949.3,1189.7
-2630.6,114.1,-836.4,-2655,3664,3805.4,3948.6,1191.7
-2626.5,113.8,-836.8,-2655.7,3662.2,3809.6,3950.9,1191
-2621.8,113.3,-827.9,-2658.5,3658.6,3810.1,3951.1,1188.8
-2620.8,116.6,-825.4,-2656.8,3659.8,3810.5,3951.6,1186.7
-2619.3,119.5,-824.7,-2653,3662.1,3810.2,3950.8,1186.8
-2616.8,121,-821.6,-2649.2,3663.5,3812.3,3952.4,1188
-2616.8,118.8,-823.3,-2648.1,3667.1,3814.2,3953.6,1190.9
-2618.7,116.1,-827.1,-2649.7,3672.5,3819.7,3957.8,1195.7
-2620.2,117.4,-827.1,-2650.1,3672,3822.4,3960.2,1194.8
-2623.2,121.9,-826.7,-2644,3668.1,3821.5,3959.2,1191.6
-2620.6,127.2,-828,-2638.4,3667.4,3820.5,3958.4,1193.3
-2618,128.4,-828.4,-2637.3,3676.7,3820.6,3960.5,1202.7
-2612.9,130.7,-825,-2637.2,3677.6,3821.9,3962.7,1201.5
-2611.3,130.7,-819.2,-2640.5,3673.9,3826.4,3966.5,1198.1
-2614.6,129.2,-815.3,-2639.7,3672.5,3829.3,3968.5,1198.2
-2614.2,127.9,-815.2,-2637.4,3677.8,3829.9,3970.1,1203.1
-2611.5,128.7,-814,-2637.7,3677.7,3830.3,3970.3,1203.8
-2612.5,130.5,-815.2,-2637.3,3673.1,3831.7,3970.6,1202
-2615.4,129.9,-813,-2638.6,3669.7,3830.2,3968.4,1199.5
-2618,128.4,-819.1,-2639.8,3666.8,3830.5,3967.7,1196.8
-2614.5,127.2,-815.7,-2641.1,3663,3830.9,3968.1,1195.3
-2613.1,127,-809.1,-2642.6,3659.7,3832.2,3969,1194.5
-2616.3,126.2,-807.8,-2643.2,3658.7,3832.8,3969.6,1191.6
-2613.9,124.4,-809.4,-2644,3649,3828,3963.2,1178.7
-2613,123.1,-812.2,-2641.1,3642,3825.3,3960.4,1178
-2616.4,118.2,-816.8,-2640.9,3644.9,3823.6,3960.1,1184.8
-2617.4,117.9,-820.5,-2639.9,3644.8,3823.4,3960.6,1188.3
-2615,122.4,-819.3,-2636.3,3633.1,3828.2,3964.5,1186
-2613.6,122.2,-822.9,-2639.8,3634.2,3828.3,3965.8,1187.1
-2615.4,121,-818.1,-2644.8,3641.5,3827.2,3966.8,1189.6
-2616.6,121,-819.5,-2644.4,3648.9,3827.5,3967.1,1193
-2617.5,117.7,-821.5,-2643.3,3660.4,3828.2,3968.5,1199.4
-2618.3,115.1,-822,-2643,3667.7,3829.2,3970.4,1201.4
-2616.8,113.4,-818.6,-2644.4,3666.6,3829.2,3969.2,1199.6
-2617.4,111,-818.3,-2647.6,3665,3831,3969.8,1198.4
-2619.1,110.4,-819.6,-2647.9,3665.3,3833.2,3971.5,1197.2
-2619.2,112.1,-820.1,-2646.2,3664.2,3833.7,3970.9,1198
-2619,113.3,-816.9,-2644.2,3661.5,3833.8,3969.6,1197.8
-2617.9,112.8,-815.7,-2640.9,3660.7,3834.8,3969.4,1197.5
-2618,110.4,-814.5,-2639.3,3663.9,3835.5,3970.9,1201
-2619.6,110.6,-814.2,-2639.1,3664.3,3835.8,3972,1200.6
-2624.1,112.3,-815.6,-2638.3,3662.5,3835.8,3972.1,1199.1
-2627.1,112.4,-818.2,-2639.6,3663.5,3836.7,3971.7,1200.8
-2627.1,110.2,-819.3,-2641.2,3670.9,3837.2,3971.8,1208.6
-2625.1,108.2,-818.3,-2642.2,3669.7,3839.9,3972.2,1206.7
-2624.3,107.8,-816.3,-2643.6,3663.3,3842.2,3972.7,1202.9
-2625.7,108.8,-820.1,-2641.9,3660.5,3845.3,3974.4,1203.6
-2629.7,107.2,-820.3,-2641.8,3667.1,3847,3977.2,1211.1
-2631.7,105.2,-817.9,-2643.7,3669.2,3848.5,3979.3,1212.9
-2630.4,104.6,-819.3,-2646.5,3668.1,3846.9,3978,1210.9
-2629.3,101.6,-822.1,-2649.8,3667.5,3840.9,3973.5,1208
-2629.1,101.3,-824.7,-2652,3666.4,3836.6,3969.3,1204.6
-2631,101.4,-826.7,-2651.1,3665.8,3838.6,3970.6,1203.5
-2634.3,101.1,-828.1,-2649.5,3665.7,3840.2,3972.5,1202.6
-2634.2,101.3,-828.8,-2648.1,3664.7,3840.2,3972.7,1198.3
-2634.1,99.5,-830,-2649.8,3653.3,3839.1,3969.7,1182.9
-2632.5,98.8,-832.5,-2649.4,3648.6,3837.7,3970.3,1180.4
-2635.1,96.7,-835.2,-2650.8,3655,3834.5,3969.2,1185.8
-2635.6,94.2,-836.4,-2652.8,3657.7,3833.4,3968,1187.7
-2633.2,95.1,-834.8,-2651.4,3646.4,3836.4,3968.8,1183.8
-2632.2,93.3,-833.2,-2652,3644.1,3834.2,3966.2,1183
-2632.6,93.2,-828.9,-2652.1,3643.6,3831,3961.7,1183.1
-2633.1,92,-827.9,-2652.5,3643.1,3830.2,3959.7,1184.3
-2634.2,94.4,-830.4,-2650.4,3648.8,3832.1,3960.8,1189.7
-2635.3,91.9,-829.7,-2655.5,3654.7,3833.1,3962.5,1193.7
-2630,89.3,-829.3,-2660.3,3659.1,3833.9,3963.3,1195.6
-2629.6,88.7,-832.6,-2660.6,3663.3,3833.9,3963.7,1197.4
-2633.5,87.1,-835.6,-2658.6,3670.7,3834.5,3964.6,1199.9
-2637.1,84.7,-838.4,-2657.9,3676.2,3835.1,3963.6,1204.1
-2635.7,85.7,-836.8,-2658.4,3675.3,3836.8,3963.7,1206.4
-2633.2,88.4,-837.4,-2661.2,3674.2,3837.4,3964.3,1208.4
-2630.7,93.1,-836.1,-2661,3675.4,3840.3,3965.5,1213.2
-2630.3,95.9,-833.1,-2657.7,3674.4,3842.9,3967.4,1212.4
-2630.5,95.5,-828.9,-2654.9,3673.2,3842.1,3968.1,1207.3
-2633,93.8,-827.8,-2652,3675.6,3840.9,3968.8,1205.2
-2634.6,93.1,-830,-2648.8,3684.7,3840.3,3969.7,1212
-2632.8,96.1,-826.3,-2646.4,3681.7,3840.7,3968.6,1208.6
-2629.5,95.2,-824.3,-2647.9,3673.6,3840.6,3967.5,1203.1
-2625.4,94.8,-823.3,-2649,3666.4,3841.2,3967.5,1199.9
-2624.9,97.2,-824,-2644.8,3666.6,3841.8,3968.4,1203.7
-2626.2,96.4,-828,-2642.7,3666.3,3844.5,3970.7,1204.7
-2626.5,95.3,-827.8,-2642.5,3663.9,3846.9,3972.8,1202.9
-2628.8,94.1,-827.1,-2643.8,3661,3843.3,3969.4,1199.9
-2634.4,90.5,-830.9,-2647.7,3658.5,3841.4,3967.6,1196.8
-2636.8,89.9,-833.7,-2649.7,3658.4,3842.1,3968.9,1196.5
-2638.6,88.5,-833.7,-2652.4,3658.6,3841.1,3967.9,1198.2
-2640,83.2,-834.1,-2655.4,3657.3,3841.8,3966.8,1197.4
-2640.4,83.4,-838.6,-2657.1,3644.9,3841.4,3963.6,1185.1
-2642.2,82.8,-840.4,-2657.2,3636.9,3840.1,3962.3,1183.8
-2641.3,80.3,-838.3,-2658.8,3641.6,3837.4,3961.4,1190.6
-2639.7,82.5,-835.5,-2659.1,3643.4,3834.8,3959.9,1192.8
-2635.3,84.1,-831,-2658.1,3632.4,3837.5,3961.1,1187.1
-2637.3,81.4,-834.9,-2658.6,3634.6,3838,3961.1,1188.1
-2640.5,78.3,-840.3,-2660.6,3643.1,3836.9,3961.7,1193
-2642.9,76.1,-842.6,-2662.1,3649.8,3835.4,3961.3,1196.8
-2644.7,76.4,-841.8,-2663.8,3658,3837.7,3963.4,1201.6
-2647.1,77.6,-840.3,-2667,3662.8,3838.9,3965.5,1203.7
-2645.9,78.1,-839.5,-2668.6,3663.3,3840.9,3967.5,1204.2
-2645.5,77,-840.3,-2669.5,3665,3841.1,3969.5,1204.6
-2642.4,79.1,-838.2,-2665.5,3668.5,3837.5,3968,1202.6
-2641.6,79,-838.7,-2664,3672.1,3835.7,3966.7,1203.3
-2639.4,78.5,-838.2,-2662.4,3671.9,3835.5,3966.5,1201.3
-2636.7,76.5,-835.5,-2663.1,3670.4,3833.9,3965.1,1197.9
-2634.9,78,-834,-2662.2,3669,3834.8,3965.9,1197.6
-2632.3,79.2,-832.7,-2660.7,3665.4,3834.8,3965.1,1194.1
-2632.1,83.3,-834,-2659.2,3659.2,3833.5,3963.4,1189.1
-2634.5,88.5,-832.1,-2655.2,3658.4,3833.3,3964,1189.1
-2636.8,89.6,-826.9,-2653.1,3666.8,3831.7,3964.2,1194.7
-2639.1,88.6,-828.7,-2651.6,3668.1,3833.4,3965.6,1193.4
-2639,87.7,-827.9,-2651.6,3666,3835.5,3967.7,1191.8
-2639.4,86.3,-829.4,-2653.1,3663.4,3834.3,3966.4,1191.2
-2638.8,84.5,-830.9,-2654.7,3666.8,3834.9,3967.1,1196.3
-2637.6,84.7,-828.9,-2657.5,3666.5,3837.5,3968.3,1197.8
-2636.1,84.1,-829,-2657.3,3662.2,3839.5,3967.8,1196.3
-2636.2,83,-833.9,-2656.2,3659,3839.6,3967.1,1194.6
-2639.9,83.4,-840.2,-2657.6,3656.4,3839.6,3966.3,1194.2
-2639.4,81.8,-840.2,-2660,3655.7,3839.8,3966,1196.3
-2639.2,78.5,-838.9,-2661.6,3658.2,3838.4,3964.8,1199.1
-2644.8,76.4,-841,-2661.3,3660.6,3838.2,3963.5,1199
-2645.3,76.4,-840.9,-2662.8,3650.1,3835.4,3958.3,1186.3
-2646.3,77.2,-840.2,-2663.4,3641.3,3831.8,3954.7,1183.2
-2648.8,76.3,-840.9,-2662.8,3644.4,3831.7,3955.7,1189.3
-2653.3,77,-841.6,-2661.5,3645.4,3833.7,3958.1,1192.9
-2653,80.4,-839.6,-2658.2,3634.5,3838.3,3961.3,1188.9
-2652.7,77.2,-844.1,-2660.3,3638.1,3838.7,3962.4,1189.3
-2654,76,-848.1,-2662.4,3648.6,3840,3964.2,1195.1
-2654.1,75.5,-848.9,-2664.2,3656.8,3838.8,3962.7,1198.3
-2656.4,71.4,-847.4,-2667.7,3665.2,3839.8,3963.8,1201.8
-2658.8,69.3,-845.3,-2670.7,3669.1,3841.9,3965.5,1203.4
-2654.7,68.9,-843.3,-2673.8,3669.3,3842.9,3966.3,1202.7
-2651.9,68.2,-842,-2675.3,3669,3843.5,3967.4,1201.6
-2649.6,68.4,-841.1,-2673.6,3671,3842.6,3966.7,1200.5
-2646.3,69.6,-840.8,-2670.6,3671.8,3841.7,3965.6,1201
-2645.5,72.1,-842.6,-2668.1,3673.1,3839.8,3965.7,1201
-2644.6,73.4,-839.4,-2665.4,3674.5,3839.7,3965.9,1201
-2644.8,74.8,-838.5,-2664.6,3677.5,3838.1,3964.5,1201.6
-2644.4,74.5,-838.7,-2665.8,3678.3,3839.7,3966.6,1200.4
-2645,76.4,-839.5,-2662.9,3675.4,3839.5,3966.9,1199.1
-2646.9,77.9,-840.8,-2660,3675.4,3839.1,3966.6,1201
-2646.9,78.5,-839.2,-2659.8,3684.9,3838.6,3967.6,1210.7
-2644.3,80.6,-835.6,-2658.8,3686.5,3839.2,3969.2,1209.2
-2642.7,82.5,-834.4,-2656.5,3684.4,3841.8,3972.6,1204.2
-2642.6,82.5,-838.1,-2654,3684.7,3844.2,3976.2,1201.9
-2644.7,82.7,-839.1,-2651.6,3691.9,3845.9,3978.3,1206.6
-2644,83.1,-838.5,-2651.2,3690.9,3846.8,3977.5,1205.6
-2640.6,80.3,-831.9,-2653.6,3685.5,3847.4,3976.8,1201.5
-2641.5,78.7,-829.2,-2657.5,3681.3,3847,3975.3,1198.4
-2645.2,78,-831.1,-2658.5,3676.3,3846.8,3973.8,1194.8
-2644.9,77.8,-831.7,-2657.3,3674.2,3847.6,3973.5,1193.9
-2643.3,78.7,-831.2,-2657.2,3675.6,3848,3972.9,1193.8
-2642.2,81.2,-832.3,-2659.2,3676.3,3845.7,3969.6,1192.2
-2642.2,81.2,-834.5,-2661.3,3666.2,3843.4,3965.2,1180.7
-2643.4,79,-837.2,-2661.3,3661,3840.2,3962.8,1180.5
-2642.9,74.1,-837.4,-2662.1,3666.9,3837.6,3960.8,1187.6
-2647.2,73.8,-837.9,-2661.3,3668.4,3839.1,3961.5,1193.1
-2645.3,79.5,-833,-2658,3654.2,3843.1,3962.6,1189.2
-2644.2,78.4,-833.8,-2658.5,3652.2,3844.8,3962.5,1189.4
-2644.8,79.6,-836.3,-2658,3655,3845.6,3962.9,1193.8
-2645.9,79,-836.7,-2660.4,3658.7,3844.8,3962.8,1197.4
-2647.1,77.8,-835.6,-2663.3,3667.2,3842.8,3962.4,1202.6
-2649.8,75.6,-836.3,-2664.1,3674.3,3841.5,3962.6,1206.6
-2649.1,75.4,-834.6,-2663.2,3675.5,3839.9,3962,1206.5
-2649.4,74.7,-835,-2662.1,3675.1,3838.7,3961.2,1205.3
-2648.8,74.3,-836.1,-2659.9,3677,3841,3963.3,1206.8
-2650,74.6,-840.2,-2660.6,3680.6,3842.3,3964.9,1211.2
-2648.4,77.2,-838,-2661.3,3682.4,3845,3968.1,1212.8
-2646.6,78.7,-835,-2662.5,3684.7,3846.2,3970.1,1216.6
-2643.1,80.4,-834.3,-2662.7,3686.9,3846,3969.7,1220
-2639.9,81,-833,-2662.2,3686.7,3846.7,3970.3,1218.4
-2639.4,80.4,-833.5,-2661.6,3685.5,3849.1,3971.5,1217.4
-2641.3,80,-833.2,-2662.1,3686.9,3850,3972.4,1220.1
-2644.9,79.6,-832.2,-2663.7,3697.4,3849.7,3973.7,1230.4
-2646.2,81.4,-830.3,-2661.2,3697.2,3851.4,3973.4,1230.6
-2645.3,81.7,-827.1,-2659.5,3690.5,3855.7,3975.3,1226.5
-2643.1,81.6,-823.8,-2658.6,3686.2,3858.4,3978.1,1224.9
-2645.1,81.7,-824.9,-2655.8,3690.5,3860.7,3981.9,1228.7
-2649.6,80.8,-828.5,-2653.2,3692.9,3864.4,3985.7,1226.9
-2651,81.1,-835.9,-2650.3,3690.3,3867.2,3988,1222.6
-2648.6,78.7,-833.6,-2652.9,3688.5,3862.4,3984.6,1218.1
-2642.2,80.5,-830.7,-2656.3,3685.5,3853.6,3976.8,1212.1
-2634.8,84,-825.2,-2655.9,3681.8,3847.6,3970.7,1209.1
-2631,85.3,-822.1,-2654.4,3679.5,3845.2,3967.6,1208.2
-2631.2,79.9,-821.2,-2655,3677.3,3847.5,3968,1206.2
-2631.4,73.6,-821.9,-2658.3,3666.5,3849.5,3967.7,1195.7
-2630.2,70.1,-823.9,-2660.5,3663.4,3849.1,3968.3,1198.6
-2633.3,70.8,-829.1,-2660.4,3671.7,3845.5,3966.5,1207.2
-2637.4,72.9,-832.6,-2661.4,3677.9,3846.5,3968.2,1212.9
-2639.4,73.1,-830.8,-2661,3668.9,3852.7,3972.9,1209.5
-2640.5,68.8,-828.3,-2663.2,3667.8,3855.7,3975.1,1208.6
-2638.5,68.4,-826.3,-2664.7,3670.2,3855.5,3974.7,1207.8
-2637.4,71,-829.3,-2663.3,3673.7,3854.5,3974.4,1207.7
-2635.7,72.7,-836.3,-2660.3,3680.6,3857.3,3977.5,1213.4
-2637,65.2,-839.5,-2662.7,3686.7,3860.1,3980.8,1217.8
-2638.4,61.8,-833.1,-2664.5,3688.8,3860.3,3980.9,1219
-2640.5,62,-831.6,-2665.4,3689.1,3858.4,3979.1,1217.2
-2638.9,60.7,-830.6,-2665.6,3690.4,3855.7,3977.5,1215.5
-2633.4,59.6,-824.6,-2665,3689.4,3852.1,3974.5,1215.6
-2627.6,59.6,-820.4,-2663.1,3683.2,3850.1,3972.1,1212.4
-2622.5,61.4,-819,-2660.9,3678,3849.6,3970.3,1210.7
-2619.3,64.4,-818.2,-2658.2,3676.8,3850.1,3970.9,1212.2
-2618.6,66.6,-819,-2657.8,3677.1,3850.6,3973.4,1212
-2623,65.7,-818.7,-2658.9,3677.5,3852.9,3976.1,1212.6
-2630.8,62.8,-820.6,-2660.6,3681.4,3855.6,3979.4,1216.9
-2634.8,60.5,-824.3,-2660.8,3691.9,3858.2,3982.6,1226.8
-2633.6,58.3,-825.2,-2663,3692.6,3860.8,3983.2,1226.5
-2630.5,58.1,-824.6,-2664.8,3686.9,3861.3,3982.5,1222.4
-2627,59.2,-822.4,-2664.8,3682,3862.4,3982,1220.7
-2626.2,60.2,-824.6,-2662.1,3684,3865.2,3984,1226.1
-2628,60.8,-820.3,-2660.2,3682.5,3865.2,3983.9,1225.4
-2629.1,60.2,-816.8,-2658.6,3677.1,3864.8,3983.5,1221.4
-2626.5,56.3,-823.6,-2660.8,3673.9,3862.1,3983.4,1217.1
-2626.9,53.2,-828.4,-2662.5,3671.6,3859.6,3982.1,1213.6
-2629.8,53.2,-827,-2663.5,3672.5,3856.3,3980.2,1213.7
-2633.4,54,-829,-2664.5,3675.1,3853,3977.7,1214.2
-2636.7,54.4,-828.5,-2665.5,3675,3853,3976.6,1211.9
-2636.6,55.1,-828.8,-2667.4,3662.2,3852,3972.1,1197.5
-2636.1,54.4,-831.1,-2667.2,3654.7,3851.5,3971.8,1194.2
-2636.8,52.3,-834.4,-2667.3,3660.2,3850.3,3971.4,1200.2
-2637.1,51.8,-835.6,-2666.6,3665,3851.8,3972.4,1205.1
-2636.9,53.7,-834.8,-2663.7,3658.4,3855,3975.7,1203.3
-2640.1,53.5,-835.5,-2664.8,3661.7,3855.5,3977.1,1203.8
-2640.2,50,-836.4,-2667.7,3667.3,3854.2,3977.3,1205.5
-2640.1,46.1,-837.3,-2671.2,3672.3,3852.5,3976.2,1208.2
-2641,46.7,-836.1,-2673.4,3678.5,3850.5,3974.6,1212.6
-2639.7,47.5,-833.6,-2673.1,3680.4,3850.7,3974.4,1213.6
-2636.2,48.7,-831.2,-2673,3680.1,3850.6,3973.5,1212.2
-2633.3,51.1,-829.9,-2673.1,3679.3,3853.1,3974.7,1209.5
-2632.7,50.2,-831,-2673.7,3683.1,3852,3975,1209
-2633.2,47.3,-829.9,-2674.2,3687.8,3851,3974.7,1211.5
-2633.7,43.4,-827.8,-2674.8,3687.1,3849.8,3973.2,1210.7
-2633.8,44.9,-826.2,-2672.8,3683.3,3847.8,3971.2,1208.8
-2634.9,50.4,-824.2,-2668.6,3679,3849.5,3969.9,1208.6
-2633.9,52.8,-825.2,-2667.8,3672.8,3850.5,3969.6,1205.3
-2630.9,53.3,-827.5,-2668.6,3668.3,3851.2,3970.5,1202.7
-2630.1,51,-829,-2670.2,3668.9,3852.1,3972.2,1204.4
-2634.3,50,-831.7,-2669.7,3680.2,3853.5,3975,1214.3
-2637.7,49.7,-832.1,-2670.3,3683.2,3855.2,3976,1214.8
-2637.3,49.2,-832.8,-2669.5,3682.4,3856.2,3976.7,1212.7
-2637.1,48.6,-831.4,-2669.8,3681.4,3854.4,3974.5,1211.2
-2636,47.6,-831,-2670.7,3686.3,3855.1,3974.9,1217.1
-2633.4,47.2,-831.7,-2670.6,3687.3,3856.5,3976,1218.3
-2630.7,50,-831.1,-2668.9,3683.6,3857.5,3976,1214.5
-2630.4,50,-829,-2669.2,3681.1,3856.3,3974.7,1209.4
-2629.1,49.4,-831,-2671.1,3681.4,3853.4,3972.5,1206.5
-2629.9,49.3,-830.5,-2671.5,3683.4,3853.7,3973.2,1206.4
-2631.1,48.1,-830.9,-2670,3685.6,3854,3973.9,1206.7
-2632.3,44.7,-832.6,-2669.6,3686.2,3852.4,3973.5,1205.2
-2637,47.1,-837.9,-2670.4,3672.9,3851.4,3969.8,1191.6
-2644.9,47.1,-840.8,-2671.8,3663.1,3854,3971.2,1190.8
-2649.2,46.3,-840.1,-2672.1,3663.7,3853.1,3971,1197.1
-2649.2,45.6,-841.2,-2672.4,3662.7,3853.4,3971.5,1200.4
-2640.5,47.9,-835.7,-2671.5,3649.9,3856.4,3972,1195.4
-2639.3,47.4,-834,-2674.3,3649.9,3858.1,3972.3,1195.1
-2639.9,46.4,-838.5,-2680.3,3657.1,3856.7,3971.9,1197.2
-2639.1,44.2,-839.3,-2684.6,3665.4,3853.3,3970,1199.1
-2639.1,39.6,-839.2,-2685.5,3675.4,3851.9,3969.3,1203.7
-2638,36.4,-837.7,-2684,3680.2,3851.4,3968.6,1206.5
-2639,36.7,-837.3,-2682.4,3681.1,3852.3,3969.1,1207.9
-2640.4,36.4,-839.9,-2683.2,3682.4,3853.2,3970.4,1207.6
-2639.8,37.4,-839.9,-2683.1,3685.1,3856,3972.8,1207.8
-2638.1,37.9,-838.8,-2681.5,3687.4,3857.9,3974.2,1210.1
-2637.9,38.5,-841.1,-2680,3688.5,3857.3,3975.1,1209.5
-2638.9,40.9,-838.1,-2678.5,3688.5,3855.7,3973.3,1208.8
-2640.1,42.4,-835.1,-2675.1,3689,3855,3971.5,1211.6
-2643.6,43.1,-833.1,-2674.2,3686.2,3855.8,3971.3,1210.4
-2648.3,44.2,-833.7,-2673.1,3681.3,3857.2,3973,1207.8
-2644.7,46.2,-832,-2673,3678.5,3854.8,3972,1207.2
-2643.6,47.6,-834.9,-2675.2,3687.5,3855.3,3974.4,1214.8
-2640.3,50.1,-835,-2674,3688.3,3856.8,3975.8,1212.2
-2634,49.5,-833.3,-2671.8,3683.4,3857.5,3975.3,1205.3
-2631.3,49.2,-833.4,-2672,3683.2,3858.1,3976.3,1203.3
-2632,48.5,-834.6,-2672.4,3689.5,3858.7,3978.2,1207.3
-2632.9,47.4,-833.7,-2674,3690.7,3859.1,3978.7,1207.3
-2630.5,46.3,-829.7,-2675.9,3688.2,3858.3,3978,1205.3
-2629.4,44.3,-836.4,-2678.7,3686.6,3858.4,3977.5,1205.4
-2634.4,42,-844.3,-2680.3,3684.4,3858.8,3977.5,1205.1
-2635.3,42.8,-841,-2678.2,3681.9,3857.2,3976.5,1206
-2632.1,43.9,-835.3,-2677.1,3680.9,3855.4,3975.1,1204.9
-2631.8,41.6,-833.7,-2677.7,3680.1,3854.3,3973.3,1201
-2632.7,39.4,-830.6,-2680.3,3668.2,3850.8,3968.1,1187.4
-2634.9,37.7,-833.9,-2682.2,3659.9,3848.3,3966.7,1185.7
-2638.8,35.5,-840.2,-2684.3,3662.1,3846.7,3966,1192.7
-2640.7,35.2,-839.3,-2684.8,3660.1,3844.3,3965,1194.8
-2639,39.6,-835.4,-2680.7,3645.8,3846,3966.3,1189.2
-2639.1,41.5,-839.2,-2679.5,3645.2,3845.6,3964.6,1190.9
-2640.1,41.5,-841.2,-2677.6,3649.8,3845.2,3963.6,1195.3
-2641.1,38.4,-842.2,-2678.8,3655.6,3843.5,3963.5,1195.8
-2641.5,36.9,-842.3,-2680.3,3664.8,3842.1,3963.9,1198.3
-2642.9,35.7,-843.6,-2681.8,3669.8,3843.1,3964,1198.9
-2644.5,35.3,-846.1,-2682,3672.2,3845.2,3964.3,1198.4
-2646.5,33.4,-848.2,-2685,3674.1,3846.7,3964.7,1198.2
-2645.9,33.7,-847.4,-2685.9,3676.3,3845.1,3963.7,1197.7
-2647.6,34.6,-848.3,-2684.3,3677.3,3844.7,3962.2,1199.4
-2647.6,32.7,-848.9,-2684,3677.3,3846.5,3963.9,1200
-2647.5,32.4,-846.9,-2683.1,3676.2,3850.1,3967.2,1199.7
-2647.4,33.8,-845.9,-2682.6,3681,3849.7,3967.8,1203.7
-2648.5,37.7,-844.5,-2682.5,3683.3,3846.4,3965.2,1202.7
-2649.7,37.5,-843.8,-2681.9,3683.1,3847.8,3965,1202
-2650.7,38.6,-847.7,-2680.8,3685.2,3849.5,3966.7,1205
-2651.1,38.3,-853.4,-2679.9,3692.2,3849.3,3966.9,1212
-2649.2,40.9,-848.3,-2680,3688.9,3850.8,3966.3,1208
-2647.4,43,-843.2,-2681.4,3682.8,3852.1,3966.2,1206.5
-2643.9,42.6,-840.5,-2680.9,3680.9,3852.4,3966.8,1207.3
-2643.7,44.5,-841.7,-2678.4,3688.6,3852.9,3968.3,1213.9
-2643.4,44.9,-844.2,-2678.1,3692.9,3854.6,3969.6,1215.8
-2642.3,45.9,-844.7,-2678.3,3691.5,3856.4,3970.1,1214.5
-2642.7,45.6,-846.3,-2680.2,3688.7,3855.5,3967.7,1214.3
-2644.2,41.8,-847.8,-2685,3685.6,3851.8,3964.7,1213.8
-2643.7,39.6,-845.7,-2687,3680.2,3853.3,3965.6,1212
-2642.9,39.2,-847.9,-2687.7,3675.8,3854.2,3966.4,1209.4
-2641.4,39.7,-846.8,-2685.3,3672.1,3853.1,3965,1205.2
-2640.2,39.4,-844.9,-2685.6,3659.6,3849.7,3960.1,1189.8
-2643.7,37.3,-843.5,-2685.1,3653.6,3848.9,3959.2,1187.9
-2648.9,33.6,-848.2,-2688.3,3661.5,3847.6,3959.3,1193.8
-2648.9,32.3,-848.8,-2689.3,3663.4,3846.4,3958.6,1196.7
-2643.5,35,-843.1,-2686,3650.5,3847.5,3959.2,1191.5
-2645.3,35,-846.4,-2684,3648.6,3847.8,3958.2,1192.3
-2649.1,32.6,-848.7,-2682.8,3651.4,3845.8,3955.7,1195.4
-2650.6,31.3,-850.8,-2682.6,3655.6,3845.7,3956,1197.3
-2649.2,33.4,-850.5,-2682.9,3662.9,3845.8,3957.7,1200.2
-2649.4,33.6,-849.8,-2685.5,3668.1,3844.7,3958.6,1200.1
-2651.8,35.1,-850.3,-2687.5,3671.1,3844.8,3960.5,1199
-2652.9,38,-848.8,-2686.2,3671.7,3842.5,3958.9,1197.2
-2654.4,37.3,-849.7,-2688.2,3674.9,3842.2,3959.1,1196.6
-2654.7,37.4,-851.9,-2686.9,3676.2,3841.2,3958,1196.5
-2653.2,38,-852.6,-2685,3672.2,3842.5,3959.2,1193.5
-2652.8,35.6,-851.2,-2686.8,3668.8,3845.3,3961.4,1193.2
-2646.8,33.3,-847,-2690.1,3669.4,3845.7,3961.6,1196.9
-2642.5,31.1,-844.8,-2693.2,3669,3844.1,3960.8,1195.2
-2641.6,30.4,-842.4,-2693.4,3667,3845.6,3962.1,1191.4
-2642.5,31.2,-842.6,-2691.2,3668.5,3843.2,3961.7,1190.9
-2646.5,30.1,-844.3,-2687.5,3677.8,3840.2,3961.1,1197.9
-2645.4,30.3,-842.2,-2686,3677.4,3840.4,3960.1,1195.7
-2645.3,30.7,-840.7,-2685.7,3673.3,3842.9,3961.4,1192.8
-2645.3,33.1,-842.4,-2685.2,3671.1,3843.7,3962.7,1192.3
-2643.8,37.8,-844.4,-2682.9,3673.6,3842.9,3962.5,1195.7
-2644.3,40.5,-842.3,-2682,3672.2,3844.5,3962.4,1195.6
-2643.1,39.7,-841.7,-2681.4,3671.4,3845.8,3964.7,1194.8
-2644.4,32.9,-843,-2686.3,3673.9,3846.4,3967.1,1196.1
-2646.4,23.4,-845.4,-2693,3675.8,3847.2,3968.1,1196.7
-2650,16.5,-848.4,-2694.3,3676.3,3849.7,3969.9,1197.4
-2655.2,18.8,-849.3,-2692.8,3675,3848.3,3967.6,1198.9
-2656.2,27.1,-849.1,-2690,3671.9,3842.3,3961.4,1195.5
-2652.8,31.5,-850.6,-2690.4,3660,3840,3956.1,1183.2
-2650.3,32.8,-853.1,-2692,3652.6,3840.2,3954.7,1183.3
-2651,31.4,-853.3,-2693.8,3656.6,3839,3955.6,1187.8
-2652.8,32,-851.9,-2693.3,3657,3841,3958.7,1189
-2655.9,34.9,-850.1,-2691.5,3647.1,3844.5,3961.2,1185.7
-2657,37,-851.9,-2692.5,3648.9,3844.4,3960.8,1187.3
-2658.2,39.2,-852.9,-2693.5,3655.5,3839.6,3956.4,1192.5
-2658.5,41,-853.9,-2691,3658.3,3836.2,3952.4,1194.5
-2659.1,38.6,-854.4,-2689.9,3663.3,3837.6,3953.3,1199
-2663,42.3,-855.5,-2686.4,3665,3838.7,3953.8,1200.8
-2660.8,50.5,-854.8,-2683.2,3661.6,3835.6,3950.2,1198.2
-2656.3,51.7,-854,-2686.7,3658.7,3835.9,3950.4,1195
-2652.7,45.4,-858.8,-2689.7,3661.4,3841.5,3955.6,1195.7
-2653,39.6,-860.2,-2689.1,3664.7,3841,3955.8,1198.3
-2657.4,39.6,-855.4,-2686.7,3665.8,3837.7,3953.8,1197.6
-2662,45.4,-856.3,-2684.5,3666.9,3834.7,3950.7,1199.1
-2661.6,51.9,-856,-2683.4,3669.5,3835.1,3951.1,1202
-2657.5,55.1,-855.2,-2681.5,3668.5,3835.4,3951.4,1200.8
-2660.8,54.9,-859,-2679.8,3668.2,3839.3,3953.5,1201.5
-2663.6,51.7,-857.3,-2679.4,3672,3843.5,3956.1,1207.3
-2661.5,48,-855.2,-2680.7,3684.2,3843.2,3959,1216.5
-2656,46.5,-851.3,-2681.5,3685.6,3842.7,3958.4,1212.9
-2652.5,46,-849.3,-2683.8,3681.5,3846.2,3958.9,1209.8
-2652.2,47,-850.5,-2682.3,3680.4,3848.2,3959.8,1211
-2651.1,46.6,-848.7,-2681.6,3685.2,3846.7,3960.7,1214.6
-2649.7,50.2,-845.1,-2680.4,3683.3,3846.4,3960.7,1211.1
-2652.9,52.8,-845.8,-2679.8,3678.3,3849.3,3961.6,1207.6
-2655.1,53,-846.8,-2678.9,3675.7,3849.7,3961.5,1206.1
-2653.2,55.6,-845.2,-2676,3670.2,3844.3,3956.2,1201.5
-2654.2,53.5,-849.4,-2675.2,3669.9,3844.4,3957.2,1200.7
-2651.2,53.9,-851.3,-2677.9,3671.1,3846,3958.4,1202.1
-2652,58.8,-852.4,-2677.6,3666.6,3844,3955.9,1198
-2654.7,55.8,-852,-2678,3651.8,3841.2,3951.4,1183.8
-2660.5,50.2,-851.6,-2679.9,3644.6,3842.1,3952.3,1184.2
-2664.1,45.4,-856.2,-2683.5,3648.1,3842.5,3955,1191
-2663.2,47,-859.7,-2684,3648,3843.3,3957.1,1195.8
-2661.1,53.5,-857.7,-2677.6,3634.7,3843,3956.6,1190
-2656.2,53.9,-853,-2675.1,3631.9,3838.3,3952.7,1184.7
-2657.3,49.7,-849.4,-2678.6,3637.3,3837.3,3951.9,1186.3
-2660.2,44.9,-851.5,-2683.6,3646.3,3837.2,3952,1192.6
-2661.1,44.7,-855,-2685.5,3655.2,3834.8,3949.3,1198.7
-2658.4,45.5,-854,-2685.8,3659,3833.7,3947.6,1199.3
-2659.1,45.9,-853.4,-2683.3,3658.8,3834.4,3948.4,1198.4
-2662,46.1,-852.3,-2681.1,3659.3,3834,3948,1196.8
-2659.9,46.9,-849.6,-2680.5,3662.4,3834.4,3949.6,1196
-2657.9,45.6,-851.7,-2683.2,3666.6,3835.6,3951.6,1198.1
-2657.6,44.3,-853.1,-2684.7,3668.6,3837.1,3952,1199.4
-2658.9,42.9,-855.1,-2684.3,3673.3,3840.1,3953.8,1203.4
-2657.8,44.4,-854.3,-2682.2,3678.4,3836.5,3951.5,1206.7
-2657.3,44.9,-853.8,-2680.2,3679.3,3836.5,3950.1,1207.4
-2658.2,42.3,-855.3,-2679.8,3676.9,3838.7,3949.4,1208.5
-2657.3,44.2,-855.8,-2678.9,3674.9,3841.8,3950.3,1210.9
-2657.7,45.5,-855.1,-2680.3,3683.1,3844.9,3953.8,1219.9
-2654.9,49.1,-852.2,-2681.1,3684,3846.1,3955,1219.9
-2652.9,50.1,-848.9,-2679.6,3680.8,3847.6,3955.8,1216.3
-2652.7,50.7,-847.9,-2676.8,3678.5,3850.1,3956.3,1215.2
-2656.6,48.2,-851,-2676.7,3684.2,3853.7,3960.2,1222.1
-2655.7,48.1,-850.4,-2676.7,3685.2,3853.1,3960.8,1222.5
-2657.9,48.7,-849.4,-2676.3,3680.4,3854.8,3960.1,1221.9
-2659.5,50.1,-847.6,-2678.7,3675.7,3852.5,3959.1,1218
-2657.7,52.5,-853.1,-2682.1,3670.2,3849.7,3956.7,1211.1
-2657.2,55.7,-859.5,-2680.2,3666.5,3852.5,3959.1,1208.9
-2657.6,57,-856.3,-2676.7,3665.7,3851.3,3958.3,1209.2
-2656.6,53.7,-849.3,-2676.2,3666.2,3848.8,3957,1206.1
-2656,50.4,-851.7,-2677.9,3657,3846.3,3954.4,1191.4
-2655.8,46.3,-852,-2681.2,3653.2,3844.3,3954.8,1188.6
-2658.9,41.3,-853.5,-2685.5,3660.2,3844.3,3956.3,1195.9
-2659.6,42.8,-853.3,-2683.2,3660.1,3842.1,3953.8,1198.3
-2658,45.1,-848.4,-2680.1,3647.6,3845.8,3955.7,1193.5
-2659.7,44.8,-847.5,-2678.7,3645.4,3848.2,3957.6,1192.3
-2659.9,44.9,-848.6,-2679.1,3650.4,3848.7,3957.5,1195.2
-2657,46.4,-849.6,-2679.7,3655.5,3845.7,3954.2,1196.7
-2657.1,45.6,-851.8,-2679.3,3664.9,3844.9,3954.1,1200.5
-2660,43.1,-853.8,-2680.5,3669.9,3846.6,3955.9,1202.1
-2663.8,41.9,-856.1,-2682.4,3669.7,3848.8,3957.4,1202.1
-2665.2,42.2,-853.4,-2683.2,3667.5,3848.5,3956.9,1202
-2664.7,40.3,-853.2,-2685.7,3669.2,3847.7,3957.1,1204.1
-2662.9,40,-853.6,-2687.6,3671.3,3848.2,3957.4,1208
-2661.6,42,-855.3,-2685.7,3671.6,3850,3958.1,1209.9
-2661.3,45,-858,-2682.3,3673.3,3849.7,3957.9,1212.6
-2661.4,43.5,-858.9,-2682,3678.3,3851.1,3960.2,1218
-2660.1,40.6,-858.5,-2683.9,3680.6,3852.2,3961.7,1219.4
-2657.8,38.1,-857.8,-2685.4,3682.5,3851.5,3962.8,1218.7
-2659.4,38.4,-858.6,-2685.3,3685.8,3852.6,3964.4,1220.6
-2662.6,39.2,-859.2,-2685.5,3695.8,3854,3967,1230.4
-2658.6,43.7,-855.3,-2684.2,3692.2,3852.3,3963.4,1226.7
-2655,48.9,-850.7,-2681.4,3681.9,3852,3961.6,1218.2
-2654.3,49.4,-848.8,-2679.5,3675.2,3854.4,3963,1214.1
-2654.3,48.8,-848.6,-2677.3,3678.4,3855.6,3965.6,1217.6
-2654.9,50.5,-847.3,-2675.8,3678.3,3855.3,3966.1,1217.1
-2656.5,52.3,-846.3,-2675.8,3675,3855.5,3967.1,1214.7
-2657,49.9,-848.1,-2678.5,3672.3,3852.2,3965.3,1211.9
-2657.8,46.8,-852.2,-2682.5,3669.7,3848.3,3961.7,1208.5
-2659.3,48.3,-853,-2680.9,3666,3847.8,3960.3,1208.2
-2658.9,50.1,-852.4,-2680.3,3663.5,3846.6,3959.4,1208.9
-2658.2,49.8,-855.1,-2681.1,3663.1,3846.8,3959.1,1207.3
-2658.5,44.5,-855.8,-2685.3,3652.8,3848.2,3958.2,1195.4
-2660.5,41.2,-858,-2687.5,3649.7,3848.7,3959.5,1196.1
-2663.5,39.5,-858.6,-2689.6,3656.5,3844.4,3957.8,1202.6
-2664.6,39,-857.5,-2690.3,3657.8,3842.7,3957.2,1204.5
-2664.1,42.9,-853.9,-2687.8,3646.1,3845.4,3958.1,1200.4
-2663.2,40.9,-850.2,-2689.3,3644.8,3842.4,3954.1,1200.2
-2665.5,40.5,-854.9,-2688.3,3648.6,3842.3,3953.4,1203.1
-2667,39.4,-857.9,-2688.1,3651.2,3842.1,3953.1,1204.5
-2663.5,40,-856.6,-2687.6,3656.5,3840.6,3953.4,1205.2
-2661.9,42.6,-855.8,-2686,3659.4,3840.3,3953.9,1203.9
-2659.7,43.2,-858.1,-2686.7,3657.9,3839.4,3953,1200.6
-2659.1,42.7,-857,-2689.9,3655.6,3840.3,3952.3,1197.3
-2664.3,41.7,-859.6,-2692.3,3658.2,3841.7,3952.8,1197.2
-2669.8,39.6,-863.7,-2692.7,3661.7,3842.3,3953,1200.4
-2669.8,39.2,-862,-2690.2,3661.1,3841.4,3952.2,1201.5
-2666.6,41.2,-858.9,-2687.2,3658.9,3838.2,3949.6,1199.9
-2665.8,41,-859,-2687.5,3660.8,3838.2,3949.8,1202.9
-2664.9,41.1,-859.3,-2688.6,3662.2,3840.8,3952.2,1205.1
-2664.7,40.4,-858.5,-2688.8,3660.6,3843.9,3953.9,1205
-2667.4,38.9,-859,-2690.1,3663.4,3845.4,3956.3,1208.8
-2671.1,34.2,-861.5,-2693.5,3675.4,3845.6,3959,1220.3
-2670.6,31.6,-860.3,-2694.5,3676.6,3845.1,3958.4,1220.3
-2669.6,33.8,-857.8,-2690,3668.2,3844.4,3956.1,1214.8
-2671.9,34.3,-860,-2687,3661.9,3846,3956,1212.9
-2673.6,38.9,-859.9,-2686.5,3664.4,3847.1,3957.5,1217.4
-2670.1,43.2,-857.3,-2687.3,3662.2,3845,3956.2,1214.6
-2665,43.2,-856.4,-2688.6,3660,3845.3,3957.4,1210.9
-2663.5,37.3,-857.2,-2693.4,3662.8,3841.3,3956.1,1209
-2663.3,35.3,-860.7,-2695.6,3666.6,3839.6,3954.7,1207.8
-2661.3,34,-862.3,-2696.4,3668.7,3838.3,3953.6,1207.4
-2661.2,34,-863.9,-2694.7,3668,3838.6,3953.1,1206.9
-2662.2,36.6,-870.5,-2691.9,3665.7,3839,3953.3,1204.8
-2662.7,35.7,-869.6,-2695.1,3653.6,3836.8,3949.9,1191.6
-2663.8,34.1,-866.4,-2697.4,3647.8,3836.6,3950.3,1191.4
-2665.9,32.7,-866.7,-2698.5,3652.4,3834.9,3950.4,1197
-2666.7,33.7,-866.3,-2697.2,3652,3836.2,3951.9,1198.3
-2665.3,34.5,-863,-2696.5,3640.6,3839.4,3954.8,1193.8
-2666.7,33.3,-863.1,-2698.1,3641,3837.3,3952.5,1194.3
-2669,32.2,-866,-2699.3,3646.7,3837.1,3951.8,1199.2
-2672.9,31.7,-870.6,-2700.7,3651.6,3836.4,3950.4,1203.6
-2673.3,30.5,-871.3,-2701.6,3658.3,3837.5,3950.8,1209.9
-2671.2,28,-864.1,-2705.2,3661.5,3837.1,3950.4,1210.7
-2667.3,30.8,-861,-2703.8,3657.5,3838.2,3949.6,1204.4
-2664.5,31.8,-858.8,-2702.1,3655.6,3838.2,3949.4,1199.8
-2662.5,31.3,-859.7,-2701.1,3661.2,3834.4,3949.1,1196.5
-2660.3,34.3,-859.3,-2698.9,3666,3832.1,3947.5,1196.7
-2662.9,36.6,-860.6,-2699.3,3665,3831,3945.4,1195.2
-2664.9,37,-860.5,-2702.1,3664.1,3832.9,3946.8,1195.6
-2663.1,36.3,-859.1,-2701.9,3666,3832.7,3947.1,1199.2
-2662.1,35,-858.1,-2701.3,3664.1,3832.2,3946.5,1198.3
-2661.5,38,-859.3,-2696.7,3657.3,3834.1,3947.4,1196
-2662.2,41.3,-860.2,-2694.1,3654.8,3833.2,3948,1196.5
-2663.7,39.9,-858.2,-2696.7,3665.6,3831.6,3949.8,1204
-2663.4,42.1,-857.2,-2695.3,3668,3832.7,3948.8,1201.4
-2660,43.8,-855.4,-2694.8,3664.6,3830.9,3946.1,1195.3
-2656.8,44.9,-852.5,-2694.8,3662.6,3828.4,3942.4,1192.5
-2654.2,48.9,-849.4,-2691.8,3666.2,3826.2,3940.6,1197.3
-2651.1,51.1,-847.6,-2690.7,3663.2,3826.1,3940.1,1196.8
-2648.7,53.8,-846.6,-2690,3654.9,3826.2,3939.7,1192.6
-2651.1,56.5,-849.4,-2687.9,3648.3,3826.1,3938.1,1189.6
-2654,57.8,-850.7,-2688,3643.3,3823.4,3935.2,1186.7
-2658.2,59.2,-853.1,-2689,3641.1,3821.4,3934.4,1186.1
-2657.8,61.2,-854.7,-2688.7,3641.1,3820.7,3936,1185.2
-2657.8,62.3,-852.8,-2690.1,3641.2,3817.7,3933.9,1182.7
-2657.9,62,-850.9,-2692.1,3631.1,3811.9,3927.1,1168.7
-2656.2,62.8,-851,-2693.1,3624,3810.4,3925.9,1166.1
-2654.8,63.6,-854,-2695.4,3626.1,3808.2,3924.3,1170.8
-2651.7,64.5,-853.4,-2696.1,3626,3807.9,3923.8,1173.2
-2646.3,67.8,-848.3,-2694.1,3615.4,3810.6,3925.5,1170.5
-2644.7,64,-849.8,-2694.7,3616.9,3810.8,3926.5,1170.9
-2645.9,61.3,-849.5,-2695.4,3621.7,3809.2,3925.6,1172.1
-2644.6,63.7,-848.6,-2694.2,3625.5,3806.2,3924.4,1172.4
-2646.4,64,-848.7,-2694.5,3630.9,3802.4,3921.9,1174.1
-2646.2,64.5,-847.7,-2694.1,3630.8,3802,3921.5,1172.1
-2645.1,65.4,-850.7,-2692.6,3626.2,3802.7,3921.5,1169.5
-2647.1,65.8,-850.7,-2690.3,3620.5,3803.1,3920.7,1165.6
-2647.6,66.7,-848.7,-2689.3,3620.8,3802.8,3921.5,1163.9
-2648.3,71,-848.3,-2689.3,3623,3800.7,3920.2,1164.6
-2649.4,73.8,-848.2,-2689,3623.6,3799.4,3918.9,1164.6
-2652.1,73.9,-849,-2688.5,3627.1,3799.3,3918.6,1166.9
-2654.8,73.3,-847.2,-2687.5,3633.6,3798.6,3918,1173.2
-2654.8,73.9,-845.7,-2686.8,3636.1,3799.2,3917.5,1174.1
-2653.9,72.1,-848.7,-2688.4,3635.3,3800.6,3918,1173.4
-2652.9,71.7,-850.1,-2688.8,3638.6,3801,3919.1,1177.6
-2651.4,71.5,-849.8,-2688.2,3649.6,3802,3921.5,1187.6
-2646.7,74.6,-846.8,-2686.2,3651.4,3803.1,3922,1187.1
-2642.9,75.4,-844.5,-2684.1,3648.1,3805.2,3923.2,1182.9
-2640.9,76.5,-843.9,-2682.2,3644.7,3806.1,3924.2,1179.5
-2639.8,76.7,-845.3,-2681.3,3649.2,3806.8,3925.6,1183.5
-2640.9,76.2,-843.4,-2682.1,3649.1,3808.9,3925.8,1182.6
-2643.7,75.3,-842.7,-2683.4,3644.3,3812.1,3927.2,1180.7
-2647.2,73.5,-843.2,-2684.7,3638.3,3812.9,3927.9,1178.4
-2649.9,75,-843.3,-2686.2,3633.1,3809.1,3925.3,1174
-2649,76.9,-842.9,-2685.1,3628.7,3807.7,3924.6,1172.5
-2645.5,76.4,-843,-2683.9,3627,3807.8,3925.3,1172.6
-2644.7,72.7,-845.4,-2686.2,3628,3805.8,3923.6,1170.3
-2645.3,70.2,-845.8,-2689.1,3618.4,3803.9,3920,1156.2
-2649.7,67.5,-846.9,-2690.9,3613.5,3803.6,3920.5,1155.7
-2656.9,65.1,-850.6,-2692.1,3617.8,3801.1,3919.6,1162.8
-2658.4,62.6,-850.4,-2691.3,3616.7,3800.7,3919.6,1164.5
-2657.8,63.5,-846.7,-2687.5,3603.7,3805.3,3922.9,1159.9
-2658.7,61,-849.8,-2689.7,3603.1,3807.5,3924.5,1161.8
-2657.9,57.8,-851.1,-2693,3610.2,3808.1,3926,1167.9
-2658.6,55.8,-853,-2694.4,3616.2,3807.2,3925.9,1172.3
-2661.9,54.5,-855.3,-2696.4,3625.3,3806.6,3927.2,1177.5
-2663.1,54.3,-858.5,-2699.9,3633.1,3805.3,3928.7,1179.6
-2662.8,52.7,-861.6,-2702.3,3638.3,3805.7,3930.7,1180.8
-2664.5,48.8,-859.3,-2702.1,3641.7,3805.5,3931.2,1179.8
-2663.2,46.8,-857.2,-2702.5,3644.3,3804.4,3929.9,1179.1
-2657.7,46.5,-857.2,-2703.9,3647.1,3806.1,3930.3,1181.6
-2656.8,47.7,-856.2,-2702.9,3647.6,3808.5,3932.5,1181.5
-2657.9,48,-858.3,-2700.7,3648.6,3812.2,3935,1181.8
-2659,48.3,-861.3,-2697.8,3653.8,3814.9,3937.5,1186.4
-2661.4,45.6,-860.9,-2698.5,3657.2,3815.4,3937.6,1188.9
-2662.4,43.8,-856.5,-2701,3658.9,3816.9,3938.7,1191.1
-2664.4,43.4,-856,-2703.2,3662.1,3815.7,3938.3,1195.4
-2666,47.7,-858.3,-2700.8,3672,3814.7,3937.9,1205.3
-2663.3,53.3,-856.8,-2696.3,3671.2,3817,3937.9,1205.1
-2657.7,52.1,-854.1,-2693,3666,3819.4,3937.5,1202.4
-2652.8,52.3,-851.9,-2688.7,3663.8,3820.9,3938.7,1201.1
-2652.3,53.4,-852.2,-2685.5,3671.5,3820.1,3940.4,1206.4
-2651.5,54.9,-848.3,-2683.8,3673.5,3820.8,3941.4,1205.1
-2649.4,56.2,-846,-2682.4,3669.8,3822,3942.1,1201.7
-2651.2,58.3,-847.5,-2682.5,3665.9,3819.4,3940.1,1197.8
-2654.4,55.6,-850.5,-2686.1,3660.6,3817.3,3937.6,1192.7
-2651.3,55.6,-844.7,-2687.7,3654.1,3817.4,3936.9,1189.6
-2650.7,58.2,-842.3,-2688,3650.7,3817.2,3935.4,1189.5
-2652.7,55.1,-844.5,-2690.1,3648.1,3820.1,3936.5,1187.8
-2652.1,48.1,-845.6,-2693,3636.4,3823.5,3938.3,1176.6
-2653,45.9,-847.7,-2693,3630.3,3821.6,3938.3,1177.3
-2657.9,45.2,-850.7,-2695.4,3638.1,3818.5,3937.9,1185.8
-2661.7,45.2,-849.6,-2696.9,3642.4,3817.3,3937.5,1189.6
-2660.9,49.7,-847.6,-2695.6,3633.6,3819.3,3937.4,1187.1
-2660.8,49,-847.7,-2697.1,3633.3,3819.9,3936.9,1188.2
-2664.3,46.4,-845.2,-2701.3,3636.5,3820.6,3936.7,1191.3
-2663,47,-847.1,-2701.7,3639.1,3821.2,3935.8,1193.6
-2659.5,45.3,-849.3,-2701.8,3646.1,3820.6,3936.2,1196.9
-2656.3,44.7,-850.7,-2698.9,3648,3820.8,3936.9,1195.8
-2656,43.2,-853.5,-2696.4,3649.5,3822,3938.7,1195.2
-2654.3,41.7,-853.5,-2696,3653.3,3821,3938.9,1194.1
-2651,42,-855,-2694.1,3657.3,3818.6,3938.4,1191.7
-2651.1,44,-857.1,-2691.9,3657.2,3818,3937.5,1190.7
-2655,47.5,-854.4,-2690.1,3653.8,3819.7,3938.2,1187.2
-2657.3,47.8,-851.3,-2689.6,3650.9,3821.5,3938.4,1185.7
-2654.9,46.8,-846,-2689.8,3651,3821.2,3938.1,1187.7
-2657.3,50.3,-844.6,-2689,3651.1,3821.5,3939.3,1186.7
-2659,51.3,-846.8,-2689.3,3650.4,3824,3941.3,1185.2
-2658.4,46.6,-849.7,-2693.3,3655.2,3824.4,3943.1,1187.8
-2657.5,39.5,-846.3,-2694.9,3666.4,3824.8,3944.7,1197.9
-2661.4,35.9,-844.4,-2696.1,3669.2,3829.3,3947.1,1200.1
-2660.7,37.7,-842.3,-2695.4,3664.9,3830.9,3947.1,1197.7
-2658,37.5,-844,-2695.7,3660.2,3831.4,3946.5,1197
-2656.1,38.7,-846.4,-2694.4,3664.3,3831.5,3946.9,1203.9
-2653.3,41.1,-844.8,-2692.6,3667.4,3832.4,3948.8,1205.5
-2652.3,43.9,-844.6,-2691.6,3668.7,3832.8,3950.8,1204.7
-2652.7,42.7,-848.2,-2693.6,3670.5,3832.8,3952,1203.7
-2654.5,39.3,-850.5,-2697.3,3670.7,3832.2,3951.9,1201
-2653.8,38.4,-848.7,-2697.6,3668.9,3831,3950.9,1197.9
-2654.3,39.2,-845.4,-2697.4,3665.7,3831.1,3948.7,1195.7
-2654.4,38.4,-842.5,-2698.5,3661.3,3830.8,3947.3,1190.9
-2653.4,41.1,-840.1,-2697.1,3643.9,3826.5,3940.6,1173.5
-2655.3,42.7,-843,-2695.5,3633.5,3827.2,3940.6,1171.2
-2654.7,39.3,-845.7,-2699.8,3637.9,3825.1,3941.3,1178.4
-2654.3,39.1,-846.7,-2698.4,3640.6,3825,3942.4,1182.7
-2653.3,40.6,-844.6,-2693.8,3632.6,3826.5,3944.4,1180.4
-2654.6,36.4,-846.5,-2694.4,3637.6,3824.1,3944.3,1183.8
-2656.4,32.8,-849.6,-2695.4,3646,3822.3,3943.1,1189.1
-2659,31.9,-851.1,-2698.7,3652.7,3822.6,3942.4,1194.8
-2660.5,37.6,-849.7,-2697.7,3660.3,3823.9,3942.2,1200.4
-2660.9,38.5,-852.4,-2695.4,3663.1,3824.4,3941.9,1201.4
-2657.3,39.6,-852.1,-2690.8,3661.7,3825,3941.4,1199.5
-2653.4,37.4,-849.1,-2689,3661.6,3825.9,3943.1,1197.9
-2654.4,37.8,-851.3,-2689.5,3666.8,3826.9,3944.9,1198.3
-2652.9,39.8,-849.1,-2689,3670.5,3828.5,3946,1199.9
-2652.8,40.1,-845.8,-2690.1,3669.5,3826.9,3944.1,1196.7
-2652,37.5,-841.5,-2692.8,3667.8,3827.6,3944.2,1195.2
-2651.8,34.6,-841.1,-2694,3667.9,3829.6,3945.7,1197.9
-2651.7,36.1,-841.6,-2692.1,3665.5,3833.6,3948.9,1198.6
-2651.1,40.8,-841.6,-2690.7,3661.4,3830.6,3945.9,1195.3
-2652,43.3,-841.8,-2688.2,3661.8,3831.8,3947.2,1195.4
-2652.4,43.7,-840.6,-2686.3,3671.5,3832,3948.6,1203.5
-2653.6,41.9,-838.8,-2688.1,3674.6,3833.1,3949.8,1203
-2652.6,42.7,-837.6,-2688,3671.9,3833.6,3949.8,1199.6
-2652.7,39.9,-838,-2689.1,3669.4,3836.1,3951.4,1199.1
-2650.5,35.9,-838.7,-2691.7,3673.4,3837.9,3953.6,1204.8
-2647.2,39.4,-837.7,-2690.2,3670.3,3835.7,3951,1204.4
-2646,44.1,-836.3,-2686.7,3662.8,3833.1,3947.7,1200.5
-2645.6,43,-836.3,-2686.9,3657.9,3832.2,3947.6,1197.2
-2647.6,39.3,-838.6,-2688.8,3655,3831.9,3947.6,1192.8
-2649.1,41,-840.4,-2686.7,3652.9,3831.1,3946.6,1192.1
-2652.2,41.5,-843.9,-2687,3654.7,3831.3,3947.5,1194.9
-2654.8,40.6,-844.3,-2688.4,3655.4,3829.1,3945.4,1194
-2653.6,38.6,-842.9,-2690.7,3643.9,3825.5,3939.6,1180.1
-2653.9,35.8,-843.5,-2693.2,3637.3,3825.3,3940.2,1178.6
-2656.1,33.6,-847.1,-2694.4,3640.6,3824.9,3941.3,1182.9
-2656.3,33.6,-848.3,-2693.9,3641.4,3825.8,3942.4,1185.4
-2653.5,39.2,-844.8,-2689.4,3630.2,3827.6,3943.8,1181.2
-2653.8,37.6,-846.1,-2691,3630.7,3828,3944.5,1181.2
-2656.6,32.5,-849.3,-2695.4,3639.2,3827,3946.3,1185.3
-2658.5,29.2,-849.8,-2697.7,3648.3,3826,3947.4,1189.3
-2657.9,26.5,-849.1,-2700,3657.8,3824,3946,1194.8
-2657.4,27.1,-848,-2700.6,3662.5,3823.7,3944.7,1197.4
-2656.9,29,-848.5,-2701.4,3661.1,3823.9,3943.4,1197.2
-2655.5,31.6,-850.4,-2700.3,3658.9,3825.9,3943.4,1197
-2657,33.4,-852.8,-2699.5,3662.3,3829.5,3946.5,1199.5
-2658.8,33.5,-855.6,-2700.2,3666.4,3832.4,3948.7,1203.9
-2660.4,31.4,-856.6,-2700.6,3667.1,3834.8,3950.6,1206.3
-2659.2,31.2,-853,-2700.2,3666.7,3832.9,3948.2,1206.2
-2655.8,30.5,-849.1,-2700.5,3668.1,3831.3,3946.6,1206.9
-2655.3,31.1,-847.4,-2698.7,3666.6,3829.1,3945.1,1203.8
-2654.7,32.4,-846.7,-2696.8,3661.5,3828.6,3944,1199.7
-2654.7,35,-847.4,-2696.1,3659,3828.5,3944,1199.8
-2655.2,33.9,-848.6,-2697.1,3667.4,3828.9,3946.6,1208.9
-2653,33,-846.6,-2699.5,3669.9,3831.3,3949,1208.6
-2651.4,32.8,-844.2,-2700.6,3667.2,3835.3,3952.2,1205.3
-2652.9,30.2,-841.9,-2703.5,3667.7,3834.7,3952.7,1204.7
-2654.5,29.5,-844.3,-2702.3,3673.5,3836,3953.8,1209.8
-2653.1,31.6,-844.6,-2700,3673,3835.4,3952.1,1209.6
-2651,33.8,-844.8,-2697.1,3666.2,3833.1,3948.9,1204.7
-2648.9,34.8,-843.3,-2695.8,3659.6,3831.3,3946.8,1199.3
-2652,33.1,-845.9,-2698,3653,3829.1,3943.7,1193.7
-2652.3,34.2,-847.9,-2696.1,3649,3829.3,3943.8,1191.3
-2652,32.4,-847.8,-2696.1,3649.6,3830,3944.4,1190.8
-2651.1,29,-846.6,-2698.4,3649.4,3830.3,3944.5,1188.5
-2651.2,27.4,-846.4,-2703.3,3641.5,3827.7,3941.6,1176.3
-2655,27.7,-848.5,-2705,3638.2,3824.3,3938.6,1175.8
-2657.6,25.7,-850.9,-2704.1,3642.4,3820.9,3937.8,1178.6
-2659.7,20.8,-851.4,-2705.2,3641.8,3822.8,3939.8,1180.8
-2658.4,22,-845.9,-2703.5,3627.8,3828.6,3942.9,1177.8
-2659,23.7,-845.8,-2704.8,3626,3826.7,3941.4,1179.2
-2657,25,-845.5,-2705.8,3631.1,3822.6,3938,1183.7
-2655.1,25.8,-848.3,-2706,3637.2,3821.9,3936.5,1188.9
-2654.2,25.4,-852.4,-2706.9,3647.1,3824.1,3939,1195.7
-2655.6,25,-856.2,-2707.9,3653,3823.5,3939.3,1197.6
-2657.1,24.4,-856.1,-2707.7,3654.3,3822.6,3937.8,1197
-2656.6,22.7,-854.2,-2708.7,3654.6,3820,3936.3,1194.6
-2653.7,25.7,-852.9,-2707.2,3654.4,3820.6,3935.8,1192
-2653.9,29.9,-856.2,-2702.6,3652,3822.1,3934.1,1193
-2655.6,28.1,-852.7,-2701,3649.8,3821.3,3933.5,1191.8
-2653.2,26.6,-850.9,-2700.7,3650.2,3825.1,3937.3,1192.3
-2652.9,26.7,-850.7,-2701.3,3653.1,3827.1,3940.6,1194.4
-2655.6,25.5,-848.8,-2701.1,3654.8,3827,3941.6,1194.3
-2659.3,24.9,-848.2,-2700.9,3654.7,3826.1,3940.9,1194.1
-2660.6,27.5,-846.2,-2700.1,3654.5,3824.2,3938.9,1196.3
-2661.2,28,-850.8,-2701.1,3660.3,3823.6,3938.3,1205
-2658.2,27.4,-851.5,-2702.3,3659,3825.5,3939.2,1204.9
-2652.5,28.8,-849.5,-2704.3,3653.2,3825.8,3939.2,1200.5
-2649,30.9,-847.1,-2704.2,3650.5,3828.3,3941,1198.9
-2648.3,33.1,-844.3,-2701.9,3655.3,3827.6,3941.3,1202.6
-2648.1,36.2,-845.7,-2699.1,3657.2,3827.6,3941.1,1201.8
-2651.2,36.7,-849.8,-2697.2,3655,3830.5,3942.6,1201.3
-2655.2,33.2,-853.4,-2699.9,3655.3,3829.1,3942,1202.2
-2657.2,29.3,-852.6,-2703.6,3656.1,3827,3940.3,1201.8
-2658.7,28.4,-852.6,-2705.7,3657.6,3827.6,3939.8,1204.5
-2658,29.9,-854.7,-2704.9,3659.7,3829.2,3940.9,1206.5
-2657.3,32,-854.9,-2703.5,3658.1,3828.8,3938.9,1203
-2652.2,28.8,-851.4,-2704.4,3643.8,3826.5,3933.6,1187.5
-2650.3,25.7,-850.6,-2704.4,3638.7,3826.8,3934.9,1186.5
-2656.8,24.1,-857.6,-2705.6,3647.5,3827.6,3937.6,1195.5
-2660.4,24.7,-857.1,-2705.8,3651.3,3826.4,3938.2,1198.4
-2659.1,35.1,-849.2,-2699.9,3638.5,3824.2,3936.2,1190
-2658.6,38.4,-849.4,-2699.3,3636.6,3823.4,3935.3,1189
-2658.6,36.8,-850,-2700.7,3641.8,3823.1,3935,1193.2
-2657.6,35.8,-851.1,-2701.2,3646.8,3822.7,3934.9,1195.9
-2652.9,34.4,-850,-2701.4,3655.4,3825.3,3938.4,1201.1
-2649.2,39,-849.3,-2699.6,3660.6,3823.6,3937.5,1202.6
-2647.1,44.9,-848.1,-2698.9,3663.8,3819.2,3934.2,1200.2
-2644.8,49.6,-846.1,-2698.9,3664.5,3818.7,3933.6,1196.5
-2644,48.9,-845.5,-2698,3664.7,3820.9,3935.8,1193.8
-2642.3,45,-846,-2696.6,3662.2,3822.8,3936,1193
-2642.4,44.3,-842.3,-2696.2,3656.8,3823.7,3935.2,1190.7
-2643.3,49.7,-838.7,-2693.5,3649.8,3823.5,3933.9,1187.8
-2642.9,56.3,-837.7,-2688.8,3646.6,3823.3,3934.1,1187.2
-2639.5,60.5,-838.4,-2688.4,3645.7,3821,3934.1,1184.3
-2637.2,62.6,-839.7,-2688.8,3646.4,3821,3935.1,1182
-2636.3,61.4,-840.2,-2690.5,3650.9,3820.7,3934.9,1184.2
-2637.6,60.5,-842.5,-2691.6,3662.5,3820.4,3935.2,1194.7
-2637.9,60.2,-841.4,-2691.4,3664.9,3823,3936.6,1196.6
-2635.6,62.1,-839.6,-2690.4,3661.3,3822,3936.5,1193.7
-2629.8,64.6,-832.5,-2689.5,3658.3,3818.5,3934.4,1190.2
-2628.4,71.8,-827.7,-2685.6,3661,3817.5,3933.9,1192.4
-2628.2,77.1,-828.3,-2683.9,3660.3,3819.4,3934.7,1192.3
-2628.8,78.5,-828.1,-2682.1,3658.1,3823.4,3938.1,1190.1
-2634.7,78.1,-830,-2682.1,3657.4,3822.7,3938.5,1188.4
-2634.9,77.4,-831.5,-2683,3656.6,3817.8,3934.9,1186.4
-2630.9,77.9,-831.5,-2682.2,3657,3814.1,3931.5,1185.7
-2628,80.4,-830.1,-2679.3,3655.6,3813.4,3930.3,1185.1
-2626.7,81.5,-832.9,-2677.8,3651.1,3814.8,3929.8,1181.2
-2626.9,74.2,-835.8,-2684.1,3637.6,3817.9,3930.2,1169.4
-2629.3,69.8,-836.5,-2688.6,3632.6,3819,3932.8,1171.5
-2630.4,70.8,-836,-2688.8,3638.1,3816.2,3932.5,1178.8
-2624.2,71.7,-831.1,-2688,3639.5,3812.5,3930.7,1180.7
-2617.1,80.9,-826.8,-2683.9,3628.2,3811,3928.5,1175.3
-2619.1,84.7,-828.7,-2685.8,3629.7,3810,3927.2,1175.5
-2623,84.4,-831.2,-2687.9,3636.5,3810.6,3928.5,1177.8
-2625.5,86.6,-828.1,-2686,3640.1,3807.3,3925.8,1178.2
-2628,89.1,-829,-2680.9,3644.8,3808.4,3926.7,1181.1
-2630.8,85.7,-832.5,-2679.8,3645.4,3812.2,3929.4,1182.2
-2629.1,85.4,-829.9,-2680,3644.7,3813.4,3931.3,1182
-2623.7,85.5,-828.3,-2680.4,3646,3812.7,3931.3,1181.2
-2621.7,82,-828.8,-2683.3,3652.6,3813.8,3933.5,1183.2
-2623.1,80.2,-829.8,-2684.6,3659,3816.4,3936.6,1188.7
-2623.6,80.5,-832.2,-2687.5,3662.2,3816.4,3936.5,1192.2
-2624.1,84.7,-832.5,-2684.8,3660.9,3816.3,3934.7,1193.8
-2624.7,84.5,-832.1,-2682.2,3662.4,3816.9,3935.6,1198
-2623.3,81.9,-830,-2684.1,3664.6,3819.1,3938.4,1199.3
-2620.9,83.7,-826.6,-2684.5,3664.6,3821.7,3940,1199.3
-2620.4,86.2,-825.5,-2682,3665.7,3823.4,3940.5,1203.7
-2623,84.9,-827,-2679.6,3675.9,3824.6,3942.3,1213.4
-2621.3,83.1,-825.8,-2678.3,3678.7,3828.3,3945.2,1214.1
-2618.4,82.4,-824.4,-2678.8,3676.7,3831.5,3948.1,1211.4
-2618.2,83.5,-824,-2677.6,3673.6,3832.2,3948.4,1208.2
-2618.7,85.5,-823.5,-2675.4,3674.7,3831.9,3948.5,1209.4
-2616.4,86.9,-821.2,-2675.2,3671.2,3833.8,3951,1208
-2614.2,87.3,-819.8,-2674.2,3664,3834.7,3951.7,1204.9
-2615.3,82.2,-819.9,-2674,3659.4,3836.2,3952.6,1203.1
-2617.9,78.4,-821.3,-2675.2,3657.8,3833.3,3950.2,1201.2
-2618.5,82.6,-821.1,-2672.9,3658,3830.1,3947.5,1199.4
-2623.1,84.2,-822.1,-2672.1,3660.9,3830.1,3947.2,1200.4
-2626,82.5,-821.3,-2674.1,3661.8,3830,3946.5,1199.6
-2625.3,80.5,-823.6,-2677.5,3648.9,3829.5,3941.6,1185.8
-2622.6,78,-824.4,-2678.4,3637.8,3827.7,3938.5,1180.6
-2619.2,74.2,-822.4,-2679,3635.4,3826.5,3937.7,1182.5
-2616.5,71.4,-820.1,-2679.9,3632.3,3826.8,3938.4,1183.7
-2613.7,76.1,-817.7,-2675.1,3617.6,3829.2,3938.9,1176.7
-2617.1,76.8,-820.9,-2674.1,3618.5,3828.4,3938.8,1175.8
-2623.9,75.2,-823.2,-2676.4,3627.5,3825.6,3938.1,1179.9
-2627.7,71.7,-824.4,-2678.5,3637,3824,3937.5,1184.8
-2629.7,66.5,-825.3,-2680.5,3646.8,3825,3938.6,1191.6
-2629.1,61.8,-824,-2683.7,3651.2,3825.3,3938.8,1192.3
-2626.1,64.2,-823.9,-2684.8,3649.4,3825.2,3938.1,1187.5
-2622.4,64.9,-822.5,-2685.9,3647.9,3825,3937.4,1185
-2618.4,64.7,-821.4,-2684.5,3650.5,3825.3,3939.4,1183.3
-2619.1,66.6,-826.7,-2682.1,3655.1,3825.9,3940.3,1185.7
-2621.2,66.1,-828.4,-2681.1,3658.1,3828,3941.9,1187.5
-2621.7,63.5,-827.3,-2681.4,3660.7,3827.2,3940.7,1191
-2623,62.8,-826.2,-2681.5,3664.8,3826.5,3939.6,1196.2
-2623.7,65.4,-824.2,-2679.4,3664.8,3827.4,3939.4,1196
-2623.3,62.8,-823.6,-2681.8,3660.7,3829.6,3939.8,1194.6
-2620.5,63.1,-822.6,-2682.4,3656.4,3830.4,3939.7,1195.1
-2620.1,61.7,-823.4,-2684.3,3661.9,3830.4,3941.5,1201.9
-2620.2,62.8,-821.7,-2683.6,3662.5,3832.5,3943.7,1200.8
-2621,64.8,-820,-2679.9,3658.8,3834.3,3945.1,1197
-2623.8,64.5,-822.1,-2679.1,3659.4,3834.2,3946.1,1198
-2624.8,65.1,-824.7,-2679.1,3668.9,3833.1,3947.5,1204.6
-2622.8,62.2,-824.1,-2679.5,3672.8,3834.2,3949.1,1205.1
-2623.7,58.8,-825.1,-2681.6,3671.5,3836.1,3950.9,1203.3
-2625.6,57.4,-828.3,-2683.6,3667.9,3836.7,3950,1201.9
-2629.2,55.4,-831.7,-2685.4,3664.4,3835.7,3947.3,1198.6
-2628.4,57.2,-828.1,-2684.4,3662.4,3835.4,3945.5,1199
-2629.5,56.7,-828.3,-2685.4,3665.1,3838,3947.7,1203.7
-2631.2,53.8,-829.2,-2689,3668.4,3840,3949,1207.3
-2633.3,51.2,-830.7,-2692.1,3660.3,3838.5,3945.1,1198.1
-2633,48.5,-831.5,-2693,3657.6,3836.2,3943.4,1200.4
-2634.8,43.8,-834.3,-2695.6,3666.3,3835.3,3944,1211
-2636.1,43.9,-835,-2694.9,3667.8,3836.2,3945.3,1215.8
-2634.4,50.1,-830.2,-2689.6,3654.3,3840.2,3948.2,1212.6
-2635.5,53.5,-830,-2686.4,3653.8,3838.8,3946.8,1213.3
-2635.2,51.8,-828.2,-2688.8,3661,3839.8,3948.1,1216.6
-2634.3,50.6,-829.4,-2692.6,3668.8,3843,3951.9,1221.5
-2631.7,50.9,-831,-2691.5,3679,3842.1,3952.3,1226.8
-2628.1,49.8,-831,-2689.3,3685.6,3841.3,3951.8,1228.5
-2625.3,48.3,-829.1,-2687.7,3686.8,3840.5,3950.3,1227.5
-2623.6,47.6,-829.1,-2686.5,3685.5,3841,3950.6,1224.7
-2620.3,45.3,-827.1,-2687.5,3685.3,3842.2,3951.8,1221.6
-2618.3,47.7,-823.4,-2685.3,3683.3,3844.6,3952.4,1222.7
-2619.7,51.3,-822.3,-2682.7,3679.5,3845.4,3953.1,1222.5
-2619.6,50.3,-822.1,-2683.2,3680.1,3846.6,3955,1226
-2616.3,52.7,-818.8,-2682.5,3682.4,3846.2,3955.2,1229.9
-2613.9,52.5,-818,-2681.7,3682.9,3846.3,3955.8,1229.3
-2615.3,47.5,-819.6,-2683.2,3684,3850.3,3959.6,1229.2
-2618.1,46,-821.8,-2682.4,3687.4,3852.7,3960.8,1233.6
-2620.1,49.1,-822.6,-2680.9,3694.2,3849.1,3957.7,1239.9
-2619.1,50.3,-819.3,-2680.2,3692.7,3852.2,3959.7,1237.5
-2617.7,53.1,-816.3,-2678.4,3686.7,3854.1,3961.6,1230.8
-2615.1,56.3,-815.9,-2676.8,3681.9,3856.2,3962.2,1227.2
-2614.6,58.3,-817.4,-2675.6,3685.5,3857.7,3963.4,1231.3
-2617.6,61.8,-814.5,-2675.7,3686.1,3858.7,3964.2,1231.2
-2618.7,61.1,-814,-2676.9,3682.7,3860.1,3965.3,1229
-2618.8,57.4,-814.6,-2678.8,3679.9,3858.2,3963.3,1227.3
-2619,55.3,-817,-2681.6,3678.9,3854,3959.7,1226.3
-2617.2,53.5,-817,-2682.9,3676.5,3853.1,3959.1,1224.7
-2618.3,50.7,-816.8,-2682.5,3674.6,3856.4,3961.9,1224.1
-2619.7,48.3,-816.2,-2683.6,3672,3859.4,3964.5,1220.6
-2618.4,46.4,-816.3,-2686.6,3661,3858.9,3963.6,1206.8
-2619.4,43.4,-819.8,-2685.3,3656.1,3854.1,3962.1,1204.1
-2618.9,43.4,-822.4,-2684.2,3661.1,3847.5,3957.7,1207.5
-2617.4,46.2,-821.5,-2683.1,3661.8,3843.8,3954.8,1207.6
-2613.5,48.5,-816.8,-2680.3,3649.6,3845.8,3955.3,1201.5
-2611.6,46.4,-816.7,-2682.1,3648.3,3845.1,3954,1200.6
-2615.2,42.1,-816.3,-2685.1,3652,3845.9,3954.1,1205.1
-2620.1,36.3,-821.4,-2688.8,3655.9,3850.1,3956.9,1210.3
-2620.2,35,-823.6,-2689.3,3662.3,3853,3959.1,1217.4
-2618.4,34.7,-822,-2690,3665.3,3850.9,3957.3,1219.7
-2618.2,34.8,-821.9,-2689,3665.9,3849.1,3956,1218.1
-2616.9,33.1,-821.6,-2689.1,3665.1,3846.6,3955.4,1213.5
-2615.1,31.9,-823.1,-2690.8,3666.8,3846.6,3955.7,1211.9
-2615.5,30,-826.6,-2694.6,3669.7,3847.2,3955.4,1216.3
-2616.3,31.8,-828,-2695.2,3670.8,3844.8,3953.4,1216.9
-2616.4,32.5,-825,-2693.4,3671,3846.3,3954.5,1217.7
-2619.9,32,-824.1,-2692.3,3675.7,3848.9,3957.2,1224.4
-2619.8,30.3,-821.4,-2692.7,3676.6,3851.2,3959.5,1226.4
-2617.8,28.7,-821.1,-2694.2,3677.1,3852.2,3963,1225.7
-2619.1,28.8,-823.6,-2695.2,3681.8,3852.1,3964.4,1228.8
-2621.6,25.4,-825.7,-2697.6,3692.4,3853.5,3965.5,1239.9
-2620.5,22.5,-823.9,-2698.9,3692.2,3856.3,3966.4,1240.2
-2617.2,24.2,-820,-2697.1,3683.9,3856.3,3965.9,1232.3
-2619.1,24,-817.1,-2696.6,3677.9,3856.9,3966.6,1229
-2621.6,24.2,-816.3,-2696.6,3681.4,3858.3,3969.6,1234.5
-2618.2,27.9,-814.3,-2694,3680.2,3858.3,3968.8,1233.2
-2613.2,32,-813,-2689.7,3673.3,3858.3,3966.1,1227.8
-2612.7,30,-819.6,-2689.2,3670.5,3858.6,3965.9,1224
-2616.4,25.8,-823.6,-2692.4,3671.4,3856.7,3965.5,1222.3
-2616.8,25.1,-821,-2693.3,3671,3852.9,3963.4,1220
-2618.5,25.2,-819.9,-2694.9,3670.9,3851.8,3963,1218.2
-2619.6,24.5,-820.5,-2695.9,3669.4,3851.8,3961.3,1216.4
-2618.9,24.3,-824.1,-2696.1,3656,3849.7,3956.1,1204
-2618.1,23.6,-828.8,-2695.9,3647.4,3849.2,3955.7,1203.1
-2620,19.2,-827,-2698.9,3653.1,3847.2,3956.8,1207.9
-2620.6,18.2,-826.6,-2698.7,3656.5,3847.8,3958.5,1210.2
-2618.6,22.1,-826.2,-2695.6,3644.4,3849.1,3958.5,1204.4
-2620,21.1,-828.9,-2697.5,3646.4,3847.9,3958.4,1205
-2621.9,19.1,-831.1,-2697.9,3654,3845.8,3956.9,1209.3
-2622.4,16.9,-831.9,-2699.5,3659,3844.6,3955.5,1211.7
-2621.1,14.8,-830.3,-2701.6,3664.8,3842.4,3954.4,1215.2
-2620.3,14.5,-826.9,-2702.3,3666.3,3843,3953.9,1215.8
-2622.4,15.4,-825.9,-2702.3,3666.6,3844.4,3954.7,1214.9
-2623.6,14.8,-825,-2702.7,3669.2,3845.2,3956.7,1213.1
-2625.1,12.6,-825.9,-2703.6,3675.2,3846,3958.9,1213.2
-2625.9,13.6,-827.2,-2702.5,3679.7,3844.3,3957,1216.8
-2626.7,14.3,-828.5,-2702.4,3681.1,3843,3955.2,1216.5
-2626.5,14.7,-828.3,-2700.6,3680.4,3843.2,3955.3,1214.7
-2627.8,15.4,-827.9,-2700.2,3680,3844.2,3955,1216.7
-2625.6,15.8,-825.2,-2700.2,3676.1,3844.7,3954.7,1215.2
-2624.9,14.4,-824.8,-2699.8,3671.4,3845.2,3954.7,1212.4
-2625.4,15.3,-823.6,-2697.9,3670.6,3848.6,3956.9,1212.3
-2626.9,15.5,-826.4,-2699.1,3677.9,3850,3958.8,1218.4
-2624,15.4,-824.9,-2699.1,3677.8,3849.8,3959.7,1214
-2625.6,14.5,-826.7,-2697.3,3674.5,3850.1,3959.6,1210
-2627.1,13.2,-829.7,-2696.4,3672.1,3849.1,3957.2,1210.2
-2628,12.1,-829.6,-2698.5,3678.6,3848.7,3957.5,1217.1
-2628.6,13.9,-829,-2701.2,3678.7,3849.3,3958.1,1218.3
-2627.3,16.8,-828.4,-2700.5,3673.3,3849.9,3958.7,1214.1
-2628.9,17.9,-828,-2699.1,3670.1,3849.1,3958,1211.7
-2631.3,14.7,-830.8,-2701,3669.1,3845.9,3955.8,1209.5
-2631.4,10.4,-832.2,-2703.1,3670.7,3847.1,3957.9,1210
-2630.2,9,-833.1,-2702,3675.5,3847.3,3959.1,1212.2
-2631.1,6.7,-835,-2702.3,3679.4,3845.5,3958.4,1212.1
-2634.4,4.3,-837.1,-2705.1,3671.7,3844.3,3954.6,1201.5
-2636.1,3.2,-837.8,-2706.6,3663.9,3845.3,3953.7,1201.4
-2638.5,3.1,-842.5,-2708.7,3664,3845.7,3954,1206.6
-2637.9,4.5,-842.1,-2708.6,3660.3,3846.9,3955.4,1206.1
-2631.2,8.4,-838.3,-2706.5,3645.8,3848.9,3956.3,1199
-2629.6,5,-837.8,-2710.2,3649.1,3849.2,3956.6,1201.2
-2632.7,3.6,-840.2,-2711.3,3658.9,3849.5,3956.7,1207.3
-2635.3,2.8,-839.3,-2710.2,3667.9,3846.6,3955.1,1212
-2637.3,-0.2,-838.6,-2710.6,3677.2,3843.2,3953.6,1216.6
-2638.1,-0.1,-836.1,-2710.1,3680.1,3843.3,3952.9,1216.5
-2634.8,2.4,-836.3,-2709.3,3679.2,3844.3,3952.3,1216.5
-2637.3,4.5,-838.9,-2708.1,3679.3,3845.2,3953.1,1216.8
-2639.7,5.6,-841.2,-2707.3,3682.2,3847.5,3956.2,1216.8
-2639.1,6,-838.4,-2707.9,3685,3850.2,3958.1,1219.6
-2636.7,5.2,-835.9,-2710.2,3686.8,3850.2,3957.7,1221.2
-2636.5,4.6,-837.1,-2709.9,3689.3,3851.6,3959.3,1223.4
-2637.6,3.3,-842,-2708.2,3693.6,3851.8,3960.4,1227.9
-2640.7,3.7,-841.4,-2706.8,3693.5,3853.5,3961.6,1229.2
-2640.8,1.7,-839.2,-2704.8,3690,3854.7,3961.3,1229.1
-2638.9,0.9,-835.9,-2704.1,3687.2,3855.2,3960.6,1230.3
-2638.9,2.5,-832.6,-2701.4,3692.5,3853.7,3959.4,1236.9
-2633.4,3.8,-830.6,-2700.3,3692.6,3854.2,3960.3,1235
-2627.3,4.5,-828.8,-2699.9,3692.9,3855.1,3962,1233.2
-2623.9,8.4,-827.8,-2699.2,3693.4,3852.5,3959.8,1230.7
-2624.3,10.5,-828.2,-2698.9,3701.1,3853.8,3962.5,1235.2
-2624.1,12,-827.5,-2698.5,3702.4,3854.6,3963.2,1234.2
-2623.6,15,-826.3,-2696.6,3696.2,3854.4,3961.3,1228.9
-2626.3,15.5,-827.2,-2694.5,3689.6,3855.7,3960.8,1224.3
-2628.8,13.3,-828.5,-2696.3,3684.1,3854.4,3958.6,1219.2
-2627.3,13.1,-825,-2698.4,3680.3,3854.3,3959.7,1215.4
-2624.3,16.6,-822.2,-2697.2,3679.6,3852.4,3959,1214.1
-2627.5,15.4,-824.8,-2697.4,3680.3,3852.9,3958.8,1212.7
-2630.6,11.2,-829.1,-2699.6,3670.7,3852.2,3956.9,1201.9
-2629.6,9.4,-831.6,-2701,3663.2,3849.3,3955.4,1198.7
-2632.6,7.1,-834.3,-2704.7,3665.5,3847.3,3953.8,1203
-2633.5,5,-834.2,-2706.3,3662.4,3847.8,3952.9,1206
-2631.1,5.5,-829.4,-2703.9,3647.1,3850.9,3954.4,1201
-2631.3,5.5,-829.9,-2704.1,3647.9,3847.8,3952.9,1200.7
-2631.1,6.9,-830.1,-2701.6,3653.9,3845.1,3950.6,1203.6
-2633.9,5.1,-831.1,-2701.6,3660.6,3843.8,3949.6,1208.6
-2636.5,3.1,-833.8,-2701.8,3670.8,3843.8,3951.7,1215.2
-2638,1.1,-836.8,-2703.7,3679.2,3842.6,3952.9,1218.4
-2635.7,1.7,-837.4,-2704.7,3681.8,3839.1,3950.3,1216.8
-2632.8,2,-838.3,-2706.1,3680.9,3840,3950.5,1213.4
-2632,-1.3,-838.5,-2708.2,3679.6,3842.8,3951.5,1210.8
-2634,-0.3,-836.5,-2707.3,3677.3,3842.9,3950.1,1211
-2633.6,1.3,-834.1,-2707.1,3675.2,3843.4,3951.1,1210.7
-2634.9,3.4,-836.6,-2705.7,3674.7,3847,3954.4,1212
-2636.8,5,-837.8,-2705.2,3677.7,3847.3,3955.1,1215.6
-2634.7,4.6,-836.2,-2706.2,3681.2,3846.1,3955.4,1215.4
-2631.7,3.5,-833.2,-2707.7,3680.3,3842.7,3953.1,1211.6
-2631.4,-0.2,-834.8,-2708.8,3681.6,3843.4,3953.9,1212.6
-2632.2,-3.6,-835.4,-2710.1,3690.1,3843.8,3955,1221.6
-2627.8,-2.1,-832.7,-2710.2,3689.8,3845.8,3955.8,1220.4
-2626.8,1.3,-833.6,-2710.4,3684.9,3846.1,3956.1,1217
-2626.7,2.9,-833.7,-2709.4,3680.4,3848.6,3957.1,1216
-2626.7,2.8,-833.7,-2709.6,3685.3,3851.9,3960.5,1222.1
-2625.6,4,-831.1,-2710.9,3685.9,3850.4,3959.3,1221.7
-2627.4,3.8,-830,-2712,3684.6,3850.4,3959.1,1219.3
-2630.2,2,-831,-2712.8,3683.3,3849.6,3957.5,1218.6
-2631.3,-1.2,-834.7,-2715.3,3682.2,3847.3,3955.4,1216.6
-2630.7,-1.9,-836.3,-2716.9,3680.9,3847.4,3956,1215.9
-2632.9,-0.3,-837.9,-2715.6,3680,3848,3957,1216.4
-2634,-1,-839.4,-2715.4,3679.5,3849.1,3958.8,1215.5
-2632.9,-4,-838.2,-2715.9,3668.5,3849.2,3956.1,1202.3
-2636.3,-5.2,-839.6,-2715.3,3664.1,3848.4,3956.3,1201.3
-2640.8,-5.7,-841.1,-2717.6,3673.2,3845.1,3956.9,1207.5
-2643.2,-5.4,-840.8,-2717.1,3677.1,3845.6,3958.1,1211.7
-2637.2,-6.8,-834.5,-2715.6,3665.5,3847,3958.1,1206.8
-2633.1,-5.3,-835.2,-2716.6,3663.5,3845.9,3955.9,1204.5
-2635.6,-6.4,-836.7,-2717.5,3665.7,3845.7,3954.9,1205.6
-2637.4,-7.3,-842.3,-2714.6,3667.6,3847.4,3956.2,1208.2
-2637.2,-4.9,-844.4,-2710.5,3671.9,3847.3,3956.2,1213.4
-2635.6,-3,-842.1,-2710,3673.4,3842.8,3951.9,1214.9
-2633.5,-2,-842.8,-2710.9,3674.3,3842,3950.8,1214.8
-2632.8,-1.6,-843.2,-2711.2,3676.5,3843.4,3950.9,1215.6
-2633.9,-3.9,-845.4,-2712,3681.2,3843.7,3950.9,1218
-2635.7,-6.1,-843.3,-2714,3684.1,3843.4,3951.2,1219.6
-2631.1,-5.3,-840.2,-2714.6,3682.3,3841.1,3950.9,1215.1
-2630.1,-4.8,-836.2,-2712.8,3679.4,3842.8,3950.7,1214.8
-2632,-4,-834.2,-2711.7,3682,3843.5,3950.4,1219.3
-2629.5,0.6,-834.6,-2709.2,3681.6,3843.2,3950.2,1219.1
-2629.3,3.9,-836,-2705.7,3679.3,3843.5,3951.4,1215.6
-2634.2,3.9,-840.8,-2703.8,3681.5,3843.9,3952.9,1217.7
-2637.6,3.1,-845.7,-2704.8,3693.3,3844.5,3956.2,1227.5
-2636.9,0,-846.3,-2706.8,3697.6,3847.5,3959.6,1226.3
-2633.6,-2.2,-843.9,-2709.3,3695.4,3848.3,3959.1,1222.5
-2629.6,-0.5,-837.3,-2709.8,3693.9,3849.6,3957.9,1221
-2627.6,3,-834.4,-2707,3697.6,3850.8,3957.8,1226.1
-2626.3,7.6,-832.1,-2704.5,3696.9,3850.5,3956.7,1226.1
-2625.5,10.3,-831.2,-2702.5,3694.4,3851.6,3958.4,1223.8
-2626.9,7.1,-830.3,-2703.4,3692.9,3852.2,3960,1221.4
-2627.8,-0.4,-831.9,-2709.3,3691.9,3850.6,3959.5,1218.2
-2625.5,-2.6,-831.3,-2712.8,3690.5,3850.9,3960.1,1216.7
-2623.2,0.3,-830.9,-2713.2,3689.4,3849.4,3959.1,1215.7
-2624,2.1,-832.1,-2710.8,3688.1,3848,3957.2,1213.6
-2625.5,3.4,-832.5,-2707.8,3673.7,3845.4,3951.1,1197.9
-2627.3,6,-833.4,-2705.6,3663.7,3845.6,3949.7,1194.6
-2630.4,3.7,-836.3,-2705.7,3667.2,3845.6,3951.2,1202
-2630.1,2.9,-834.3,-2706.7,3669.7,3846.9,3954.5,1205.8
-2629.5,6.1,-832.4,-2706,3661.6,3850.3,3958.2,1203.7
-2630.5,7.1,-835.9,-2708.9,3666.9,3848.6,3958.2,1207.4
-2635.9,7.7,-837.3,-2712.4,3677.8,3846.1,3957.5,1214.1
-2643.4,6.3,-836.6,-2713.1,3685.1,3848.9,3958.3,1220.6
-2644.9,4.3,-835.3,-2711.5,3689.3,3851.1,3958.6,1226.3
-2641.9,5.1,-832.2,-2709.8,3689.5,3850.1,3956.8,1227.6
-2636.2,4.4,-831.4,-2707.5,3688.1,3851.7,3957.3,1228
-2630.2,1.9,-837,-2707.2,3688.9,3853.4,3959.3,1228.5
-2625.6,-3.3,-840.6,-2709.1,3694.1,3854.4,3961.6,1228.7
-2622.3,-1.6,-839.2,-2710.1,3698.5,3853.6,3961,1230.5
-2625,0.2,-838.7,-2710,3699.6,3852.1,3960.7,1228.8
-2627.4,3.6,-837.9,-2708.9,3699,3852.7,3960.7,1226.8
-2628,8.2,-832.5,-2707.9,3698,3852.4,3958.8,1228
-2628.7,9.3,-830.9,-2706,3694,3852.1,3958,1225.3
-2626.3,9.8,-829.1,-2702.7,3688.1,3854,3959.3,1220.9
-2621.7,8.8,-828.6,-2702.8,3687.8,3854.2,3961.3,1220.9
-2618.1,8.5,-829.5,-2706.7,3698.5,3854.7,3963.6,1229.7
-2618.5,10.7,-826.8,-2712.3,3701.8,3856,3965.3,1228.9
-2616.9,9.1,-827.1,-2712.8,3699.4,3857.8,3967,1226.2
-2617.1,8.9,-828.1,-2708.8,3699,3855.6,3965.3,1224.9
-2617.8,8.9,-827.4,-2705.9,3705.2,3854.3,3964.5,1230.3
-2617.8,9.4,-824.2,-2703.6,3704.1,3854.3,3964.9,1230.1
-2617,14.4,-823.5,-2698.5,3697.6,3854.5,3964.6,1224.9
-2615.6,15.6,-824.6,-2696.6,3692.8,3854.3,3963.6,1221.1
-2618,12.5,-827.1,-2699.3,3690.3,3854,3962.6,1218.5
-2617.4,11.8,-827.2,-2699.4,3689,3854.1,3961.9,1218.1
-2615.8,13,-829,-2699.2,3689.8,3854.6,3961.8,1219.8
-2617.2,13.7,-832.4,-2700.3,3689,3851.7,3959.4,1216.2
-2619.6,10.8,-833,-2701.9,3675.6,3848.9,3954.1,1202.4
-2625.6,5.7,-831.6,-2702.8,3667.1,3848.4,3953.2,1201.2
-2627,0.7,-828.3,-2706.1,3668.4,3847.1,3953,1206.3
-2624.4,3,-825.5,-2707.5,3666.8,3845.2,3952.3,1207.1
-2620.7,6.9,-819.8,-2707.3,3657.1,3849.6,3955.6,1203.2
-2622.5,7.7,-821.7,-2709.5,3661.2,3850,3956.6,1206.3
-2625.4,0.8,-826.7,-2713,3672.8,3849.6,3958.4,1213.4
-2626.4,-5.2,-828.3,-2714.9,3684.2,3851.4,3960.5,1219.2
-2630.6,-11.3,-830.5,-2717.4,3694.6,3854.2,3963.6,1225.9
-2630.5,-14,-835.6,-2717.4,3699.9,3856,3963.6,1230.4
-2627.6,-12,-837.2,-2716.3,3699.6,3854.3,3960.5,1231.5
-2622.5,-3.1,-834.7,-2716,3697.9,3849.4,3955.9,1229.1
-2620.1,4,-834,-2713.3,3699.4,3847.8,3955.1,1227.4
-2621.9,5.9,-834.4,-2709.8,3701.7,3850.6,3957.4,1227.9
-2625.5,4.4,-833.1,-2707.9,3702.6,3853.6,3959.1,1228.5
-2628.4,7,-833.7,-2704.3,3705.2,3853.8,3959.8,1230.8
-2629.7,9.4,-833.9,-2701.8,3710.3,3852.5,3959.5,1235.7
-2628.7,12.1,-831.6,-2699.9,3709.3,3852.8,3958.8,1233.5
-2630.8,12.8,-830.9,-2699.8,3703.5,3854.8,3959.5,1229.5
-2630.5,11.3,-830.5,-2700.5,3701.8,3858.9,3963.2,1231
-2628.7,10.7,-832,-2702.3,3708.8,3859.5,3965.5,1239.5
-2629.8,9.5,-834.3,-2701.8,3711.6,3864.1,3969.1,1241.4
-2631.3,11.5,-834.6,-2699.7,3710.2,3865.4,3970.3,1238.9
-2632.9,14.9,-839.9,-2696.4,3709.1,3866.9,3972.8,1236.5
-2635.3,12.9,-838.8,-2696.5,3716,3867.9,3975.6,1241.8
-2637.9,11.5,-834.3,-2700,3716.8,3869.5,3976.1,1242.1
-2635.1,9.3,-828.3,-2705.5,3711.7,3867.9,3974.1,1238.3
-2634.8,8.8,-825.1,-2706.3,3707.1,3863.9,3970.2,1234.8
-2637.6,8.8,-826.6,-2705.9,3704.7,3860.8,3966.5,1232.6
-2634.8,13.5,-824.2,-2700.7,3701.4,3860.1,3965.1,1229.7
-2632.4,15.6,-825.2,-2696.7,3699.9,3859.9,3966.6,1226
-2632,12.8,-832.8,-2697.5,3701.4,3862.3,3968.9,1224.3
-2630.9,10.3,-837.8,-2701.8,3695.5,3862.1,3967.7,1215.7
-2633.2,4.5,-833.9,-2707.3,3693.7,3861,3967.7,1217.9
-2637.7,-0.3,-832.2,-2710.3,3699.1,3860,3965.8,1225.6
-2636,0.5,-836.9,-2708,3698,3859.2,3965.6,1226.4
-2633.3,6.2,-828.5,-2702,3682.2,3858.8,3963.8,1219
-2631.9,6.1,-830.4,-2702.2,3681,3861.2,3964.4,1220.2
-2628.4,7.5,-835.2,-2701.6,3685.3,3863.1,3964.8,1225.4
-2627.7,6,-831.9,-2706.9,3692,3861.9,3963.6,1230.6
-2626.1,2.1,-830.7,-2709.5,3703.8,3863.5,3966.5,1237.6
-2626.9,-3.1,-832.2,-2711.3,3712.4,3864,3969.6,1240.6
-2630.3,-5.4,-830.5,-2712.5,3719.1,3862.9,3971,1240.7
-2635.1,-2,-830.9,-2714.9,3719.4,3866.2,3972.7,1238.6
-2638.8,10.8,-832.8,-2707.9,3710.8,3864.4,3968.7,1230.6
-2639.7,15,-830.1,-2702.6,3706.7,3863.2,3966.4,1228.1
-2634.5,16.7,-834.1,-2701.5,3705.3,3865.9,3968.1,1228
-2631.1,17.1,-839.1,-2700.9,3705.7,3866.4,3968.7,1228.7
-2632.4,15.2,-831.3,-2698.1,3709.8,3866.3,3968.9,1232.9
-2632.9,10.1,-829,-2699.4,3712.8,3868.8,3971.3,1236.3
-2635,8,-829.8,-2698.6,3711.1,3870.2,3971.7,1237.1
-2633.5,5.6,-825.7,-2699.5,3709,3866.3,3969.1,1236.9
-2629.5,4.6,-821.5,-2698.5,3715.5,3862.9,3969.5,1238.9
-2626.8,5.2,-821.4,-2704,3712.3,3866.1,3970.2,1236
-2622.8,5.2,-819.1,-2710.5,3705.3,3871.3,3972.8,1233.3
-2622.2,3.9,-817.2,-2708.1,3704.6,3870.9,3974.2,1234.7
-2624.3,4.3,-818.2,-2697.9,3713.3,3868,3973.9,1240.5
-2628.4,8.1,-825.5,-2690.3,3716.3,3868.9,3973.6,1241
-2627.7,9.6,-827.5,-2690.1,3715.4,3870.3,3973.8,1238.7
-2624,10.7,-828.9,-2694.1,3713.5,3868,3972.6,1234.8
-2620.6,10.7,-832.2,-2699.1,3708.2,3863.6,3968.4,1229.5
-2624.9,10.1,-830,-2698.6,3702.5,3865,3969.1,1227.1
-2634.4,11.6,-831.1,-2695.9,3699.8,3869,3971.5,1229
-2638.1,9.9,-827.6,-2696.8,3698.8,3869.3,3971.6,1228.4
-2636.7,4.8,-825,-2700.9,3690.1,3865.7,3968,1216.3
-2634,5.7,-834.4,-2701,3685.4,3863.2,3967.1,1214.7
-2632.1,3.4,-840.4,-2704.1,3692.5,3861.3,3967.1,1221.4
-2631,0.1,-837.8,-2708.5,3694.8,3861.5,3966.8,1224.5
-2626.6,3.2,-829.8,-2708.4,3682.4,3862.6,3966.2,1219.9
-2629.2,3.7,-830.6,-2709.7,3683.6,3861.8,3965,1222.8
-2634.9,3,-831.8,-2709.1,3690.2,3862.9,3966.4,1227.6
-2638.4,2.6,-833.4,-2707.9,3692.3,3864.2,3967.4,1229.3
-2635.9,4.8,-836.6,-2706.3,3698.2,3864.5,3968.8,1233.9
-2635.8,8.1,-836.7,-2705.4,3702.7,3862,3967.9,1233
-2639.1,7.5,-838.4,-2706.8,3706.2,3863.4,3969.9,1233.6
-2640.1,6.9,-839,-2707.8,3708.9,3863.4,3970.7,1233.2
-2636.3,6.5,-833.5,-2709.8,3713.3,3861.8,3969.1,1233
-2632.6,5.8,-831.5,-2710.9,3716,3859.2,3965.4,1234.9
-2627.2,6.5,-828.8,-2707.7,3713.8,3859.5,3964.3,1233.6
-2628.3,4.4,-829.2,-2705.9,3712.7,3862.2,3966,1234.8
-2634.4,6,-831.6,-2703.7,3716.1,3867.1,3970.4,1240.5
-2637,7.7,-833,-2702.4,3718.7,3868.9,3972.6,1242.2
-2634.6,10.6,-830.8,-2702,3718.7,3869,3974.3,1239.4
-2632.2,12.4,-830.3,-2703.6,3720.8,3867.8,3974.9,1237.5
-2635.7,16.2,-833.2,-2703.9,3731.1,3869.5,3977.4,1244
-2634.5,22.4,-829.8,-2701.5,3727.7,3868.8,3974.9,1238.3
-2635.8,20.5,-828.2,-2700.5,3720,3870.3,3974.9,1232.5
-2630.2,12.6,-824,-2701.1,3715.2,3873.2,3976.5,1231.7
-2626.4,10.9,-824.3,-2701.3,3716.9,3875.3,3979.2,1236
-2628.8,17.5,-825.5,-2695.7,3714.1,3876.1,3980.1,1234.3
-2627.4,21,-826.6,-2693.3,3709.2,3874.5,3978.4,1231.2
-2624.1,20.4,-829.7,-2696.1,3708.8,3869.9,3975.5,1230.2
-2625,15.7,-828.7,-2701,3708.6,3866.6,3972.1,1228
-2625.6,14.9,-827,-2702.1,3707.6,3865.6,3970.7,1225.9
-2627,19.8,-828.1,-2699.2,3705.8,3865.8,3969.9,1224.8
-2629.9,24.4,-830.3,-2697.6,3702.8,3863.5,3966.7,1219.9
-2630.3,18.7,-829,-2701.9,3692.3,3864,3964.8,1207.9
-2632.3,18.8,-830.3,-2701.9,3685.2,3863.7,3963.8,1207.8
-2633.8,16.9,-832.1,-2702,3689.8,3863.1,3964.3,1215
-2625.8,14.5,-828,-2703.1,3694.5,3861,3964.7,1219.2
-2621,20.8,-824.9,-2699.9,3685.9,3860.1,3964.3,1215.4
-2620.8,22.3,-828.4,-2698.9,3687.9,3858.5,3963.1,1216
-2627.6,23.5,-829.5,-2697.6,3694.6,3858.1,3962.6,1219.8
-2632.4,25.4,-829.5,-2697.4,3698,3858.5,3962.2,1221.2
-2630,26.6,-829.4,-2697.1,3702.2,3857.8,3961.8,1223.5
-2627.5,27,-828.2,-2697.1,3702.3,3858.4,3961.8,1222
-2626.6,29.2,-828.1,-2696.6,3701.2,3859.7,3963.6,1220.3
-2623.9,34.9,-828.2,-2694.8,3701,3858.1,3963.9,1218.1
-2626.6,35.3,-827.2,-2697.6,3706.4,3855.9,3965.7,1218.6
-2625.9,33.2,-823.7,-2698.8,3711.6,3854.9,3964.9,1221.2
-2619.8,33.3,-821.9,-2697.1,3712.2,3853.4,3963.2,1221.2
-2614.1,35.8,-819.9,-2694.8,3710,3850.8,3960,1220.6
-2615.9,39.8,-818.3,-2692.8,3709.4,3850.8,3959,1223.3
-2616.2,42.9,-821.9,-2689.1,3706.4,3853.5,3960.1,1223.1
-2609.5,43.3,-818.8,-2687.4,3701.5,3852.9,3959.3,1219.5
-2606.6,39.7,-816.8,-2687.9,3701.9,3854.9,3960.9,1220.6
-2606,41.2,-819.1,-2685.8,3711.3,3856.3,3962.8,1230
-2604.2,46.6,-820,-2684.5,3712.7,3856.3,3962.1,1229.6
-2599.9,49.3,-814.5,-2685.5,3710.1,3853.4,3959.6,1226.1
-2597.6,52,-812.4,-2685.1,3708.6,3851.2,3957.7,1224.4
-2597.9,54.8,-810.6,-2683.4,3713.5,3851.5,3959,1228.5
-2598.4,59.7,-805.3,-2680.2,3712.1,3852.2,3959.3,1227.2
-2599.5,64.4,-802.3,-2676,3705.2,3853.8,3959.5,1222.5
-2600.8,67.1,-803,-2675.2,3700.1,3853.5,3958.9,1218.1
-2601.4,63.8,-805.3,-2677.6,3699.3,3852.3,3958.7,1214.9
-2597.6,62.6,-806.8,-2676.9,3700,3851.3,3958.8,1212.6
-2592,63.4,-805.5,-2676,3701.1,3850.9,3959.2,1210.8
-2593.6,64.4,-807.6,-2676.6,3699.9,3847.6,3956.8,1207.8
-2594.5,66.3,-808.3,-2678.5,3688,3846.3,3952.9,1194.7
-2596.3,69.3,-807.7,-2679.4,3680.4,3845.1,3950.8,1193.8
-2600.3,66.6,-810.2,-2682.1,3683.2,3845.7,3951.6,1201.2
-2605.9,70.5,-814.2,-2679.8,3680.7,3849,3953.8,1203.8
-2604.5,77.7,-811.4,-2676.1,3666.2,3854.8,3958,1199.2
-2599.9,75.2,-812,-2678.1,3664,3854.8,3958.9,1198
-2594.6,71.2,-810.3,-2679.6,3668.2,3848.9,3955,1199
-2591.1,65.2,-807.1,-2681.4,3673.4,3844.8,3953.1,1200.7
-2590.6,57.6,-806.3,-2684.7,3682.5,3844.7,3954.3,1206
-2593.1,57.9,-809.5,-2682.6,3685.9,3846.1,3954.3,1209
-2596.4,59.7,-811.9,-2679.9,3683.7,3847.2,3953.4,1208.8
-2598.4,59.4,-811.2,-2680.5,3682.7,3848.3,3954.5,1208
-2597.8,59.2,-808.9,-2680.5,3685.8,3847.5,3954.4,1206.7
-2595.2,60.6,-807.3,-2678.9,3687.8,3846.3,3953.1,1207.5
-2595.2,63.9,-808.4,-2677.6,3688.4,3845.6,3952.8,1207.5
-2595.2,62.8,-811,-2677.7,3690.1,3845.7,3953.4,1207.7
-2597.6,60.3,-811.4,-2676.2,3693.4,3847.3,3955.1,1211.7
-2600.7,61.5,-811.3,-2674.4,3693.9,3847.5,3955,1213.4
-2601.6,64.5,-811.1,-2673.5,3690.2,3846.9,3953.8,1212.1
-2599.7,62.7,-811.3,-2676.3,3689.8,3849.8,3955.6,1212.7
-2601,56.4,-809.4,-2679.3,3698.4,3853.5,3959.8,1220.8
-2601.4,55.5,-807.6,-2677.7,3699.7,3857.3,3963.1,1220
-2600.6,54.9,-803.9,-2677.2,3698.5,3857.2,3964,1216.4
-2600.7,57.6,-806.7,-2674.9,3699.9,3856.2,3964.5,1215.5
-2599.4,58,-807.9,-2673.4,3706.6,3855.6,3965.2,1219.1
-2596.7,58,-807.2,-2672.6,3708.1,3856.5,3966.6,1218.6
-2596.1,56.2,-806.3,-2673.3,3704.2,3856.5,3966.8,1215.8
-2600,54.3,-806.7,-2674.4,3700.8,3856.1,3966,1214
-2604.6,51.1,-809.5,-2676.1,3698.5,3855.4,3964.7,1212.3
-2606,54.1,-807.3,-2673.9,3697.5,3857.5,3965.1,1212.1
-2606.6,55.6,-808,-2674,3697.5,3858,3965.5,1212.9
-2604.4,57.5,-809.4,-2672.6,3696.6,3855.1,3963,1210.3
-2601.1,56.4,-806.5,-2673.7,3685.9,3850,3956.8,1196.6
-2599.2,54.9,-807.2,-2675.1,3682.3,3848.2,3956,1196.1
-2600.9,50.9,-812.3,-2678.9,3690.1,3848.3,3957,1203.1
-2600.7,49,-814.7,-2677.5,3692.9,3849.2,3958.7,1206.7
-2597.6,50.9,-811.3,-2674,3682,3853.1,3961.4,1204.1
-2597.8,49.6,-811.8,-2674.4,3682.8,3856.2,3963.1,1205.7
-2602,50.2,-815.2,-2675.9,3691.1,3857.3,3964.6,1210.9
-2602.4,47.1,-815.6,-2679.2,3700.5,3858.6,3966.3,1216.5
-2602,41.9,-814.7,-2681.5,3710.9,3859.7,3968.8,1223.3
-2604.4,40.5,-813.9,-2680.8,3716.3,3860.7,3971.5,1226.9
-2607.6,40.9,-813.6,-2681,3716.9,3860.6,3972.3,1227.7
-2608.7,43.4,-812.4,-2678.3,3714.6,3860,3971.5,1225.5
-2605.5,43.6,-810.6,-2675.7,3714.1,3859.3,3969.7,1223.3
-2606.6,45,-810.7,-2673.3,3711.3,3861,3969.2,1222.6
-2604.3,46.6,-808.7,-2671.3,3707.2,3863,3969.5,1220.7
-2600.2,46.4,-810.2,-2670.4,3705.7,3863.5,3969.4,1221.6
-2599.6,48.2,-808.7,-2668.8,3706.4,3863.9,3969.9,1224.2
-2600,49.7,-805.2,-2667.7,3705.5,3864.2,3969.9,1222.6
-2601.5,48.7,-806.8,-2668.3,3704.2,3863.3,3969.2,1220.9
-2601.4,45.8,-809.6,-2669.9,3706.4,3863.2,3970.1,1223.2
-2598.7,43.5,-810.5,-2671.4,3714.3,3864,3972.6,1231
-2598.2,45.5,-809.1,-2670.8,3711.6,3865,3973.5,1227.7
-2600.7,47,-806.9,-2670.3,3706.5,3867.3,3975.3,1224.5
-2602.5,47.1,-805,-2670.3,3704,3870.7,3977.3,1225
-2602.5,47.3,-807,-2670,3709,3873.3,3980.5,1230.8
-2600,47,-805.8,-2671.8,3710.2,3872.1,3979.9,1229.9
-2598.7,47.5,-808.9,-2671.1,3707.1,3871.2,3978.5,1225.4
-2600.4,46.5,-811.3,-2671,3702.6,3870.3,3976.3,1222.1
-2604.3,42.8,-811.4,-2672.6,3696.7,3867.5,3971.8,1217.1
-2604.6,41.5,-806.7,-2673,3691.6,3864.6,3968.1,1212.5
-2602.6,42.4,-803.5,-2673.4,3687.3,3863.7,3967.3,1209.3
-2603.9,41.3,-803.9,-2674.8,3683.8,3865.4,3968.3,1206.4
-2606.2,39.3,-807.4,-2676.4,3672.3,3864.3,3964.9,1194.7
-2610.2,39,-810.5,-2675.7,3666.1,3863.3,3963.6,1194.4
-2617.1,35.2,-812.6,-2677.8,3672.1,3859.9,3962.9,1201.5
-2619.6,33.2,-816,-2678.6,3676,3860.1,3963.8,1206.4
-2614.1,34.5,-817.6,-2677.8,3667.5,3861.8,3964.4,1205.9
-2611.9,32.7,-823.1,-2681,3669.1,3859.3,3962.8,1208.1
-2614.7,31.8,-826.1,-2685.2,3676.3,3859.7,3963.3,1213.6
-2615.3,31.5,-826.1,-2688,3682.2,3858.5,3961.7,1217.9
-2612.2,28.2,-823.7,-2689.6,3691.1,3858.6,3962.1,1223.4
-2610.4,25.8,-823.4,-2689.7,3697.4,3858.7,3962.5,1225.3
-2608,23,-822.6,-2689,3701.2,3860.6,3965,1225.3
-2608.8,22.9,-823.5,-2687.7,3705,3859.4,3965.2,1225.2
-2611.6,23.9,-825.4,-2686.2,3710.6,3858.3,3965.2,1225.3
-2614.6,27.1,-826.8,-2683,3713.4,3859.2,3964,1228.1
-2614.8,30.5,-826.4,-2679.7,3710.9,3858.8,3962.2,1227.4
-2612.9,31.2,-822.4,-2677.1,3707.6,3859.6,3961.5,1225.5
-2608.5,33.9,-816.9,-2674.3,3706,3861.2,3961.8,1226.4
-2608.8,36.8,-818.8,-2674.2,3703.7,3862.7,3963.5,1224
-2608.4,40.8,-822.4,-2675.8,3702.5,3864.4,3966,1223.2
-2607.7,39.6,-821.1,-2680.5,3706.2,3862.6,3966,1225.4
-2610.3,37.5,-819.3,-2682.1,3716.3,3863,3968.4,1233.4
-2608.8,34.3,-815.5,-2683.2,3717.4,3865.4,3969.5,1233.5
-2607.5,35.1,-813.9,-2680.2,3711.8,3866,3968.5,1228.4
-2608.7,35,-812.7,-2678.5,3707.5,3865.9,3969.5,1224.2
-2608.1,35.7,-808.8,-2675.7,3709.3,3867.1,3971.5,1227.2
-2607.5,39.8,-806.9,-2672.4,3708.9,3868.2,3971.2,1227.9
-2606.2,41.7,-808.4,-2672.4,3705.8,3869.5,3970.4,1226.1
-2607,40.8,-811.3,-2675.1,3702.8,3868.3,3968.3,1223.9
-2611.2,38.6,-813.5,-2677.1,3703.4,3866.6,3965.9,1223.8
-2615.7,38.3,-814.9,-2676.2,3705.8,3867.6,3966.9,1225.2
-2616.6,38.4,-817,-2676.9,3705.5,3869.6,3968.3,1225.2
-2616.7,38.6,-817.7,-2678.4,3703.8,3868.6,3968.1,1222.6
-2614.2,35.6,-816.1,-2679.7,3691.8,3864.2,3963,1210.4
-2612.2,35.1,-817.8,-2678,3686.5,3863.6,3963.4,1210.7
-2611.2,34.5,-819.8,-2678.6,3693.7,3862.8,3964.1,1219.1
-2609.4,35.1,-818.8,-2681,3697.1,3864.4,3966.1,1223.7
-2607.8,35.6,-813.8,-2680.8,3687.2,3869.8,3969.6,1221.4
-2610.1,33.1,-816.8,-2681.9,3689.4,3869.6,3970.8,1223.7
-2613.1,30.4,-818,-2684.4,3696.3,3868.9,3971.6,1228.4
-2612.9,27.9,-820.5,-2685.9,3699.2,3869.4,3971.9,1229.9
-2611,29.6,-824.1,-2684.5,3702.2,3870.1,3972.3,1232.2
-2613.6,33.5,-821.8,-2683,3700.5,3868.7,3970.6,1229.7
-2616,35.4,-817.8,-2680.7,3695.2,3868.6,3970.2,1224.9
-2617,33.4,-817.5,-2679.6,3692.9,3869.8,3971.2,1222.5
-2616.7,31,-819.4,-2678.4,3695.8,3869.6,3972.6,1221.3
-2619.2,31.9,-821.2,-2676.6,3697.8,3868.7,3971.4,1221.8
-2622.2,34.5,-819.5,-2679.4,3697.2,3867.4,3969.9,1222.1
-2620.9,37.3,-820,-2682.5,3696.5,3866.2,3968.3,1223.5
-2617.6,36.1,-824,-2680.8,3697.4,3866.4,3967.8,1226.8
-2614.7,33.2,-822.6,-2678.5,3695.4,3866.7,3967,1225.2
-2611,29.3,-820.7,-2676.9,3693.1,3867.2,3967.2,1222.4
-2608.2,29.4,-820.4,-2676.8,3693.6,3867.4,3968.7,1223.1
-2609.8,29.9,-823,-2679.1,3703.8,3865.9,3970.1,1231.5
-2614.4,31.6,-823.9,-2679.5,3706.4,3867.2,3971.3,1232.9
-2618.1,32.2,-824.6,-2680.1,3704.3,3868.9,3972,1232.7
-2617.9,30,-822.7,-2682.7,3702.2,3870.4,3971.7,1233
-2615.2,26.3,-817.7,-2685.2,3704.1,3871.8,3972.2,1237.4
-2615.2,25.3,-819.1,-2683.8,3701.4,3874.2,3972.3,1235.4
-2615.1,26.1,-819.1,-2683.2,3694,3875.5,3971.8,1228.3
-2619.4,27.8,-820.2,-2682.7,3689.9,3874.3,3971.2,1223.9
-2621.5,26.6,-822.6,-2684,3689,3871.5,3970,1221.4
-2618.1,28,-824.7,-2685.3,3689.4,3866.8,3967.4,1220.1
-2616.7,29.5,-828.4,-2687.3,3692.3,3865.3,3967.5,1220.7
-2619.6,30,-831,-2689,3694.9,3863.2,3965.8,1219.5
-2620.7,28.5,-828.3,-2691.4,3684,3859.8,3959.9,1205.2
-2623.4,26.4,-826,-2691.1,3675.5,3859,3958.3,1203.3
-2626.9,24.4,-826.1,-2692.7,3678.3,3858,3958.5,1209.3
-2627.1,26.5,-824.9,-2690.3,3678.1,3858.4,3959.1,1210.9
-2623.5,29.2,-822.8,-2687.8,3667.8,3862.1,3960.7,1208
-2618.4,27,-825.9,-2689.6,3668,3862.9,3961.3,1211
-2619,25.3,-829.4,-2691.3,3675.3,3859,3960.2,1215
-2622.4,24.6,-830.8,-2691.1,3683.5,3857.4,3960.7,1217.7
-2623.3,21.2,-831.8,-2693.3,3692.7,3856.8,3961.2,1222.8
-2621.2,17.7,-830.8,-2695.6,3697.8,3856.6,3961.2,1224.4
-2618.3,16.2,-828,-2695.9,3699.2,3858.7,3963,1224.2
-2620,17.1,-828,-2693,3699.6,3860,3964.6,1222.5
-2623.1,18.2,-829.7,-2690.8,3702.5,3861.7,3967.9,1221.4
-2624.2,19.7,-827.9,-2689.5,3705.5,3862.3,3969.2,1222.5
-2622,22.4,-827.5,-2689.9,3706.9,3861,3968.1,1220.9
-2618.8,24.8,-826,-2691,3708,3861.3,3968,1220
-2619,22.4,-823.6,-2692.4,3711.1,3862.1,3967.8,1222.6
-2621.5,21.4,-824,-2691.1,3710,3863.5,3967.5,1222.4
-2624.2,24.6,-824,-2688.3,3706.6,3862.9,3965.6,1222.9
-2624.8,28.8,-823.6,-2686,3706.7,3862.4,3965.3,1225.8
-2624.2,30.6,-824.8,-2687.3,3715.6,3864.2,3968,1235.1
-2620.7,33.4,-819.6,-2689,3715.4,3866.4,3969.3,1233.2
-2616.5,33.2,-819.8,-2687.3,3713.6,3868.3,3972.1,1229.4
-2618.2,31.7,-822.3,-2683.3,3717.4,3868.8,3974.7,1230.2
-2620.9,31,-823,-2677.7,3725.7,3870.4,3976.8,1236
-2622.6,31.8,-826.3,-2674.4,3726.2,3872,3977.5,1237
-2619.5,33.7,-828.3,-2674,3720.3,3872.2,3977.2,1234.6
-2616,34.1,-830.7,-2676.2,3713.6,3870.7,3975.4,1230.6
-2617.5,32.4,-835.3,-2679.2,3708.8,3870.8,3975.3,1226.9
-2613.9,30.3,-831.9,-2679,3704.5,3872.3,3976.5,1223.8
-2614.4,30.4,-822,-2680.4,3701.3,3870.5,3975.1,1221.3
-2612.6,31,-814.6,-2681.2,3698.6,3869,3973.1,1217.8
-2612.9,30.3,-813.8,-2686,3687.5,3864.7,3967.9,1203.7
-2616.1,33,-817.8,-2686.8,3682,3862.3,3966.3,1202.4
-2620.3,31.4,-820.8,-2687.1,3685.5,3859.7,3965.6,1208.1
-2619.6,29.9,-822.2,-2684.8,3684.5,3859.5,3965,1209.8
-2615.6,35.7,-821.3,-2678.4,3670.9,3862.2,3966.2,1203.9
-2617.1,34.8,-823.8,-2677,3667,3862.8,3966.8,1202.5
-2615.1,31.8,-824.1,-2677.8,3669.4,3861.3,3966,1203.6
-2616.3,30,-824.4,-2678.7,3673.8,3861.4,3965.7,1205.2
-2618,30.7,-825,-2679.5,3682.1,3862.3,3966.5,1210.4
-2620,30.8,-827.8,-2681.3,3687.4,3860.5,3965.7,1213.1
-2623.4,30,-827.5,-2681.9,3690.4,3859.3,3965.2,1213.1
-2628.9,33.7,-829.8,-2680.4,3692.2,3860.9,3967,1212.9
-2631.8,34.1,-829,-2681.8,3695.2,3860.9,3967.2,1212.7
-2628.8,33.4,-831.3,-2684.8,3696.3,3862,3967.5,1215
-2625,33.1,-829,-2685.1,3693.8,3864.3,3968.3,1214.2
-2625.6,32.3,-826.8,-2684.3,3693.7,3864.7,3969,1213.9
-2626.1,30.9,-824.9,-2683.9,3698.9,3865,3970.8,1217.6
-2621.6,30.1,-829.7,-2684,3703.4,3865,3972,1218.5
-2618,30.3,-825.8,-2682.6,3701.8,3862.2,3967.8,1216.4
-2618.8,28.7,-823.8,-2681.3,3701.4,3859,3963.7,1217.2
-2618.8,30.6,-822.4,-2681.7,3708.9,3856.4,3962.1,1223.7
-2613.1,34.7,-819.8,-2681.2,3705.9,3858.3,3961.6,1219.4
-2611.6,37.3,-818.4,-2679.9,3698,3861.4,3963,1213.7
-2610.8,36.7,-818,-2680.6,3696,3862.6,3965.4,1212.8
-2611.5,37.1,-818.4,-2678.2,3703.7,3864.3,3969.9,1218.3
-2609.1,38.7,-816.4,-2677.2,3705.9,3864.4,3971.5,1216.4
-2608.1,38.4,-813.8,-2678.5,3701.8,3865.7,3971.6,1213.1
-2613.8,36.5,-816.7,-2682.5,3700.1,3864.7,3971.1,1212.7
-2621.6,31.9,-820.2,-2687,3701.1,3863.7,3971.8,1212.2
-2626,31.8,-822.5,-2686.9,3701.5,3864.9,3972.3,1214.6
-2626.5,30.9,-822.9,-2685,3699.8,3866.8,3973.5,1217.1
-2628.1,27.7,-818.4,-2686.2,3698,3868.4,3975.1,1214.9
-2626.5,26.2,-814.3,-2688.2,3684.9,3864.9,3970.1,1199.7
-2623.5,23.1,-819.1,-2690.3,3680.1,3862.5,3969.7,1197.5
-2622.9,20.4,-828.6,-2692.3,3690,3860,3971.5,1204.4
-2620.4,26.1,-829.9,-2690.6,3694.1,3856.2,3968.5,1208.4
-2612,34.7,-824.6,-2684.5,3683.8,3853.5,3964.3,1204.5
-2608.4,32.8,-822.7,-2682.8,3682,3853,3962.7,1202.2
-2611.1,28.2,-824.1,-2681.9,3686,3855.6,3964.6,1204
-2613.4,26.1,-826.5,-2680.8,3689.5,3857.9,3966.9,1205.5
-2615.7,25.8,-825.2,-2682.3,3695.4,3858.3,3968.2,1209.3
-2618.4,27.1,-824,-2683.1,3699.1,3858.3,3968.4,1210.3
-2617.4,29.4,-826.2,-2682.6,3700.8,3859.2,3969.1,1210.1
-2616.3,30,-828.5,-2685.5,3703.7,3859.3,3969.2,1210.5
-2618.1,28.2,-824.4,-2686.9,3706.8,3858.5,3967.5,1211.5
-2621.4,26.6,-821.6,-2686.3,3706.7,3858.7,3966.2,1214.1
-2619.4,26.2,-821.1,-2685.6,3704.6,3858.9,3966.5,1214.1
-2614.3,29.4,-817.8,-2682.6,3703.6,3857.5,3965.5,1214.7
-2606.6,30.4,-815,-2681.9,3705.4,3854.6,3962.6,1216.4
-2602.5,31.1,-810.4,-2682.8,3704.9,3856.7,3962.7,1215.1
-2607.6,30.3,-809.2,-2683.4,3702.8,3862.4,3967.7,1214.7
-2612.4,27.6,-812.5,-2681.9,3702.3,3864.1,3970.7,1217.2
