EEG1,EEG2,EEG3,EEG4,EEG5,EEG6,EEG7,EEG8
0,0,0,0,0,0,0,0
-8703.2,-5206.7,-12470,-11200.8,-4400,-3677.1,-3409.4,-3892.5
-8713.2,-5212.6,-12485.4,-11210.7,-4404.8,-3680.4,-3417.1,-3901.2
-8723.3,-5219.8,-12503.3,-11220.9,-4408.5,-3683.6,-3423.7,-3909.2
-8727.4,-5228.3,-12511.3,-11229.2,-4408.1,-3685.4,-3425.1,-3911.7
-8721.6,-5229.9,-12496.4,-11221.5,-4408.3,-3686.3,-3422.9,-3908.4
-8712.1,-5223.3,-12470.2,-11210.2,-4408.1,-3688.1,-3420,-3907.1
-8701.2,-5214.2,-12444.4,-11200.2,-4399.1,-3682.9,-3406.8,-3895
-8696,-5211.8,-12436.1,-11197.5,-4396.6,-3680.4,-3402.9,-3889.9
-8699.7,-5211.1,-12444.5,-11202.9,-4401.6,-3681.9,-3409.4,-3895.1
-8708.5,-5212.7,-12460.3,-11209.5,-4406.5,-3684.6,-3416.8,-3902.9
-8720.2,-5219.5,-12488.8,-11215.8,-4411.6,-3689.2,-3426,-3912.1
-8727.8,-5225.4,-12506.7,-11218.1,-4416.3,-3692.6,-3432.5,-3919.4
-8726.6,-5228,-12503.7,-11220.8,-4416,-3693,-3430.9,-3918.2
-8720,-5222.5,-12486.9,-11225.9,-4412.5,-3691.7,-3425.2,-3912.5
-8710.2,-5210.6,-12466.2,-11221.6,-4409.9,-3689.3,-3419.4,-3904.1
-8706.9,-5202.8,-12453.7,-11209.3,-4404.1,-3685.7,-3412,-3896.7
-8703.3,-5203.3,-12453.5,-11202.6,-4403.5,-3684.5,-3411.2,-3895.6
-8708.8,-5216.5,-12471.3,-11204.2,-4407.1,-3684.8,-3415.6,-3898.6
-8718.6,-5227.3,-12491.3,-11210.9,-4411.9,-3687.9,-3424.7,-3907.9
-8726.4,-5230.6,-12507.1,-11218.4,-4417.1,-3691.3,-3432.8,-3916.6
-8730.8,-5231,-12513.9,-11228.2,-4418.1,-3693.2,-3434.7,-3919.4
-8727.7,-5223.3,-12505.5,-11230.4,-4415.4,-3693.1,-3430.9,-3915.7
-8719.3,-5220.1,-12487.6,-11217.8,-4411.7,-3690.9,-3423.6,-3908.9
-8708,-5218.6,-12468.2,-11203.7,-4405.4,-3687.5,-3414.6,-3900.4
-8701.8,-5213.1,-12457.3,-11200.5,-4400.7,-3684.2,-3410,-3895
-8705.9,-5209.9,-12465.3,-11207.8,-4402.8,-3684.2,-3413.4,-3897.1
-8713.1,-5210.9,-12479.4,-11212,-4407.6,-3687.3,-3419.4,-3904.8
-8720.9,-5211.9,-12495.9,-11216.6,-4415,-3691.5,-3429.3,-3914.5
-8726.7,-5214.9,-12507.3,-11221.9,-4417.6,-3694,-3433.4,-3920.8
-8726,-5220.4,-12504.4,-11219.4,-4417.4,-3693.9,-3432.1,-3918.5
-8719.7,-5222.5,-12490.6,-11214,-4414.3,-3691.6,-3426.2,-3912.8
-8712,-5221.6,-12472.4,-11211,-4408.1,-3688.2,-3417.6,-3904.4
-8703.3,-5213.9,-12460,-11204.1,-4407.1,-3685.7,-3413,-3896.7
-8700.8,-5204.3,-12469.3,-11204.5,-4405.1,-3684.2,-3410.5,-3894.6
-8706.5,-5201,-12480.3,-11214,-4409.4,-3686.8,-3417.3,-3902.6
-8715.1,-5203.9,-12493.6,-11218.6,-4411.9,-3688.5,-3422.8,-3909.8
-8726.4,-5210.5,-12506.5,-11222.9,-4417.8,-3691.5,-3431.1,-3918.7
-8729.3,-5218.3,-12501.2,-11228.2,-4427.4,-3697.1,-3439.6,-3925.9
-8723.8,-5219.8,-12487.9,-11224.5,-4419.7,-3693.1,-3430.4,-3918.4
-8714.2,-5216.9,-12472,-11215,-4413.2,-3689.2,-3422.1,-3908.9
-8705.1,-5214.3,-12454.1,-11200.4,-4407.1,-3684.7,-3413.1,-3899.6
-8701.5,-5222.3,-12444.7,-11189.9,-4401.8,-3679.9,-3407,-3894.4
-8704.9,-5227.3,-12453.7,-11192.3,-4405.4,-3682,-3412.9,-3898.8
-8712.4,-5227.4,-12467.8,-11199.3,-4412.6,-3686,-3421.6,-3906.4
-8721.4,-5225.8,-12486.2,-11207.9,-4417.7,-3689.6,-3429.5,-3914.9
-8726.5,-5224.7,-12499.6,-11217,-4421.4,-3693,-3435.5,-3921.2
-8724.6,-5219.8,-12500,-11221.5,-4421.1,-3693.3,-3434.7,-3920
-8720,-5211.8,-12488.8,-11215.1,-4416.5,-3691.1,-3428.4,-3913.6
-8712.4,-5205.3,-12472.3,-11207.9,-4411.6,-3688.2,-3420.6,-3904.9
-8702.3,-5198.6,-12459.2,-11201.4,-4405.1,-3683.6,-3411.2,-3894.7
-8701,-5197.1,-12456,-11199.9,-4405.7,-3683.3,-3412,-3895.6
-8706.3,-5198.7,-12463.8,-11207.1,-4410,-3685.5,-3417.6,-3901.8
-8714.2,-5200.7,-12477.8,-11216.6,-4414.9,-3688.4,-3425,-3909.9
-8724,-5206.5,-12496.7,-11225.5,-4420.7,-3692.1,-3434,-3919
-8727.7,-5213.5,-12505.5,-11228,-4422.8,-3694.2,-3436.4,-3922
-8723.5,-5216,-12497.8,-11220.1,-4419.6,-3692.6,-3431.7,-3917.5
-8714.5,-5212.1,-12481.6,-11207.6,-4412.9,-3688.5,-3423.1,-3908.6
-8704.2,-5206.5,-12464.3,-11197.9,-4404.5,-3683.5,-3413.8,-3898.4
-8697.5,-5204.4,-12453.2,-11192.9,-4399.8,-3680.9,-3407.8,-3893.1
-8697.8,-5206.1,-12453.8,-11194.4,-4403.4,-3681.9,-3411.2,-3895.5
-8703,-5209.7,-12464.1,-11200.3,-4407.2,-3684.2,-3417.3,-3901.8
-8710.5,-5215.3,-12478.6,-11206.4,-4410.5,-3685.6,-3423.3,-3908.1
-8718.4,-5220.1,-12492.5,-11211,-4413.9,-3686.8,-3428.6,-3913.1
-8721,-5226,-12496.3,-11212.7,-4419.5,-3688.5,-3432.8,-3914.3
-8717.6,-5227.3,-12489.7,-11212.4,-4414.7,-3685.9,-3426.5,-3907.6
-8709.6,-5221.4,-12483.9,-11208,-4406.7,-3681.2,-3415.7,-3896.8
-8698.9,-5215,-12460.6,-11199.4,-4401.9,-3678.4,-3408.4,-3889.8
-8693.2,-5212.3,-12447.1,-11192.8,-4398.9,-3676,-3405.5,-3886.4
-8698.2,-5213.8,-12453.8,-11194.8,-4402.5,-3678,-3411,-3892.8
-8705.8,-5217.7,-12460.8,-11208.2,-4408.5,-3683.2,-3419.5,-3904
-8715.6,-5218.9,-12476.7,-11225.2,-4411.7,-3685.4,-3424.6,-3910
-8721.8,-5217.4,-12488.2,-11228.3,-4417.7,-3688.2,-3431,-3913.4
-8715.2,-5210.3,-12481.2,-11224.4,-4416.9,-3688,-3428.6,-3910.8
-8708.1,-5200.4,-12463.4,-11217.1,-4411.7,-3684.9,-3421.3,-3904.4
-8700.3,-5193.8,-12449.4,-11207.7,-4407.1,-3683,-3414.2,-3897.1
-8694.5,-5193.8,-12438.8,-11199.4,-4403.6,-3681.6,-3409,-3892.5
-8696.8,-5196.9,-12442.6,-11199.5,-4404.6,-3682,-3411,-3894.1
-8703.2,-5201.5,-12455,-11207.9,-4409.1,-3684.4,-3417.7,-3900.5
-8711.3,-5207.7,-12474.9,-11219.4,-4414.2,-3687.1,-3425.6,-3908.1
-8719.6,-5215,-12496.5,-11226.2,-4417.3,-3690.2,-3431.3,-3914.8
-8718.6,-5223.9,-12499.4,-11222.6,-4417.2,-3691.2,-3430.4,-3913.8
-8713.2,-5222.6,-12489.1,-11215,-4410.7,-3687.6,-3422.2,-3906.7
-8707.8,-5215.6,-12471.5,-11209.1,-4406.2,-3684.3,-3415.3,-3900.6
-8698.8,-5208.7,-12451.2,-11202.8,-4404,-3682,-3410,-3893.6
-8695.8,-5206.4,-12442.5,-11197,-4401.4,-3680,-3407.6,-3890.8
-8701.7,-5211.3,-12451.2,-11199,-4405.7,-3682.8,-3413.8,-3897
-8710.2,-5216.5,-12468.4,-11206.4,-4410.8,-3686.5,-3420.9,-3904.9
-8719,-5216,-12488.4,-11217.7,-4415.4,-3689.7,-3428.1,-3912.7
-8723.4,-5216.3,-12500.2,-11227,-4415,-3690.4,-3429.7,-3915.9
-8721.8,-5215.4,-12497.9,-11225,-4412.2,-3688.6,-3426,-3911.9
-8713.8,-5213,-12481.5,-11217.5,-4411.4,-3686.8,-3421.2,-3905.4
-8703.2,-5206.3,-12459.2,-11210,-4409.7,-3684.3,-3415.7,-3897
-8697,-5208.9,-12444.7,-11208,-4405.3,-3681.9,-3410.1,-3891.3
-8697.9,-5214.6,-12443.9,-11206.3,-4403.7,-3680.8,-3409.4,-3891
-8702,-5213.2,-12455.3,-11203.5,-4406.6,-3681.4,-3414.2,-3895.6
-8710,-5213.6,-12473.8,-11207.8,-4412.3,-3684.8,-3422.9,-3904.1
-8718.3,-5213.8,-12498.7,-11223.4,-4416.4,-3688.2,-3429.5,-3911.4
-8721.7,-5218.3,-12517.2,-11235.5,-4416.1,-3689,-3429.1,-3912.3
-8717,-5220.9,-12500.5,-11226.8,-4413.8,-3689.3,-3425.3,-3909.8
-8708,-5215,-12474.9,-11210.1,-4408.5,-3687.5,-3417.6,-3903.8
-8697.3,-5205,-12449.1,-11195.8,-4404,-3685.4,-3410.7,-3897.4
-8688.9,-5197.3,-12426.5,-11189.6,-4402.4,-3685,-3408.1,-3896.4
-8689.9,-5197.6,-12429.8,-11193.9,-4401.6,-3683.2,-3408.3,-3896.4
-8699.2,-5205.8,-12454.8,-11205.1,-4405.8,-3684.7,-3415,-3902.6
-8709.3,-5212.9,-12477.6,-11215,-4411,-3687.4,-3422.1,-3910.8
-8714.9,-5213.8,-12486.7,-11219.3,-4415.1,-3689,-3426.5,-3915.8
-8717.8,-5213.1,-12489.8,-11219.8,-4413.4,-3689.7,-3425.2,-3914.7
-8711.1,-5208,-12476.2,-11214.7,-4409.5,-3688.1,-3419.1,-3908.1
-8702.9,-5203.8,-12457.4,-11207.7,-4404.1,-3685.5,-3411.2,-3899.6
-8694.3,-5203.3,-12441.5,-11200.6,-4403.3,-3684.3,-3407.3,-3894.1
-8693,-5209.3,-12442.2,-11197.3,-4407.5,-3684.5,-3410.4,-3894.3
-8699.5,-5219.9,-12456.2,-11198.4,-4409.7,-3686.3,-3415.3,-3899.8
-8709.6,-5226,-12476.6,-11206.9,-4414.2,-3689,-3422,-3906.9
-8720.3,-5223.3,-12500.3,-11223.3,-4419.5,-3691.3,-3429.5,-3913.2
-8724.3,-5218.3,-12507.7,-11230.5,-4420.5,-3692.6,-3431.8,-3916.7
-8717,-5208.9,-12494,-11225.5,-4417.1,-3690.7,-3426.4,-3912.3
-8708,-5206.2,-12474.9,-11217.7,-4411.2,-3687.5,-3418,-3904.7
-8699.9,-5205.8,-12455.1,-11207.5,-4406,-3684.5,-3410.5,-3896.9
-8696.6,-5207.2,-12444.8,-11200.8,-4404.1,-3683.1,-3407.6,-3893.6
-8698.7,-5214.7,-12450.9,-11202.1,-4406.9,-3684.4,-3412.3,-3897.4
-8704.7,-5217.1,-12469,-11206,-4409.9,-3686.2,-3418.2,-3903.6
-8716.3,-5218.6,-12493.4,-11210.4,-4414.6,-3688.7,-3426.2,-3910.7
-8722.4,-5224.7,-12505.6,-11216.6,-4422.7,-3692.8,-3434.2,-3916.4
-8720.6,-5228.5,-12499.8,-11220.3,-4420.4,-3692.3,-3430.9,-3913.9
-8712.5,-5221.2,-12482.9,-11219.1,-4414.5,-3689.9,-3423,-3907.6
-8702.6,-5212.3,-12462.7,-11210.2,-4408,-3685.7,-3413.3,-3898.3
-8696.5,-5209.2,-12449.1,-11201.3,-4404.6,-3682.5,-3407.8,-3891.2
-8697.6,-5208.7,-12447.2,-11200.5,-4405.3,-3682,-3408.9,-3890.8
-8703.9,-5209,-12462.7,-11207.5,-4405.4,-3682.4,-3411.2,-3894.8
-8710.4,-5211.2,-12490.9,-11214.3,-4407.9,-3683.6,-3415.8,-3900.6
-8719.6,-5217.9,-12505.8,-11226.8,-4414.3,-3687.6,-3425,-3910.6
-8722.9,-5221.7,-12507.9,-11227.4,-4415.9,-3689.2,-3427.8,-3913.9
-8717,-5216.1,-12492.5,-11220.3,-4414.6,-3689.7,-3425.7,-3911.5
-8705,-5207,-12461,-11211.8,-4410.6,-3688.8,-3419.5,-3907.3
-8692.9,-5201.3,-12435.8,-11200.6,-4404.3,-3683.1,-3408.2,-3895.4
-8687.8,-5199,-12428.3,-11197.1,-4401.3,-3680.8,-3403.8,-3890.1
-8694.1,-5202.8,-12438.7,-11204,-4405.2,-3682.8,-3409.1,-3895
-8705.2,-5208.7,-12455.2,-11214.7,-4410.3,-3685.3,-3416.6,-3902.5
-8715.1,-5216,-12479.5,-11226.2,-4416.6,-3690.1,-3426.9,-3911.7
-8722.5,-5224.9,-12495.6,-11229.6,-4420.3,-3693.7,-3432.9,-3918.2
-8721.2,-5230.7,-12495.9,-11224.3,-4418.1,-3693.4,-3430.4,-3915.5
-8712.7,-5229.3,-12481.5,-11220.1,-4413.4,-3691.7,-3423.6,-3910.8
-8703.3,-5230.3,-12461.9,-11209.4,-4407.8,-3687.9,-3415.4,-3901.3
-8696,-5234.7,-12447.5,-11197.8,-4407,-3684.9,-3411.2,-3893.2
-8694.3,-5226,-12445.6,-11196.3,-4406,-3683.7,-3410.3,-3891.3
-8700.1,-5212.9,-12460.6,-11203.6,-4407.8,-3684.4,-3413.8,-3894.1
-8710.7,-5205.3,-12480.3,-11215.9,-4413.8,-3687.3,-3423,-3903.7
-8721.1,-5206,-12499.3,-11225.7,-4419.8,-3690.5,-3431.1,-3912.1
-8726.4,-5217.1,-12507.4,-11228.2,-4420.3,-3691.7,-3432.8,-3914.8
-8721.9,-5223,-12496.3,-11225.9,-4417.4,-3690.9,-3428.3,-3911.3
-8713.9,-5219.3,-12477.6,-11222.2,-4412.1,-3688.8,-3420.1,-3904.3
-8705.1,-5213,-12457,-11210.2,-4404.9,-3685.5,-3410.9,-3896.7
-8698.8,-5209.8,-12446,-11202.9,-4404.6,-3684.4,-3409.1,-3892.9
-8702.1,-5212.3,-12453.4,-11204.4,-4405.6,-3685.2,-3412.8,-3895
-8709.8,-5220.5,-12469.2,-11211.1,-4412.8,-3689.3,-3422,-3903.3
-8719.3,-5226.7,-12489.4,-11220.9,-4418.1,-3692.7,-3430,-3912.8
-8727.1,-5227.7,-12504.5,-11227.2,-4422.1,-3694.8,-3435.8,-3918.8
-8728.4,-5227.2,-12504.9,-11225.4,-4420.7,-3694.6,-3433.8,-3917
-8721.2,-5226.6,-12491,-11217.6,-4416.6,-3692.6,-3426.9,-3910.9
-8713.1,-5230.6,-12472.1,-11210.3,-4413.5,-3690.4,-3420.2,-3903.9
-8704.9,-5230.6,-12458.1,-11205.3,-4407,-3687.1,-3411.9,-3896.8
-8702.4,-5229.2,-12467.2,-11198.1,-4405.1,-3684.9,-3409.6,-3894
-8709.5,-5232.8,-12475.2,-11197.8,-4409.1,-3686.7,-3415.8,-3900.3
-8716.4,-5230.2,-12487.7,-11208.2,-4413.8,-3689.6,-3423,-3907.8
-8723.6,-5228.2,-12501.5,-11224.2,-4418.8,-3693.1,-3430.9,-3916.2
-8724.4,-5224.9,-12497.2,-11235.4,-4421.9,-3696.7,-3434.6,-3921.7
-8718.6,-5220.6,-12484.9,-11231.5,-4417,-3693.2,-3427.5,-3913.8
-8713.8,-5222.7,-12474.2,-11222.5,-4411.6,-3689.8,-3420.5,-3906.1
-8705.9,-5224.4,-12456.5,-11212.3,-4405.9,-3686.3,-3411.8,-3897.8
-8701.1,-5220.7,-12442.4,-11207.8,-4402.5,-3683.4,-3407,-3892.7
-8707.8,-5220.2,-12455.6,-11211.9,-4406.2,-3685.7,-3412.7,-3897.4
-8715.3,-5220.3,-12473.7,-11220.1,-4410,-3687.7,-3417.9,-3903.2
-8722.9,-5223.6,-12491.8,-11231.7,-4412.4,-3689.8,-3423.1,-3910.4
-8728.8,-5229.6,-12503.4,-11234.4,-4416.6,-3692,-3429.2,-3916.7
-8726.5,-5239.5,-12500.1,-11226.1,-4424.6,-3692.9,-3433.9,-3915.3
-8720.5,-5245.5,-12485.4,-11214.7,-4419.5,-3690.1,-3426.8,-3907.3
-8711.7,-5238,-12467.1,-11204.9,-4411.4,-3685.7,-3416.5,-3896.8
-8704,-5228.2,-12453.9,-11200,-4406.5,-3681.9,-3408.4,-3887.6
-8704.1,-5220.3,-12451.3,-11209.5,-4407,-3681.4,-3409.3,-3889.2
-8710.7,-5217.7,-12459.9,-11215.8,-4410.2,-3682.8,-3414.2,-3894.4
-8718.3,-5222.6,-12475.2,-11217.2,-4414.3,-3684.9,-3421.7,-3901.6
-8727.9,-5233,-12493.7,-11218.6,-4420.4,-3689,-3430.5,-3910.5
-8731.4,-5233.2,-12502.8,-11218.8,-4423,-3691.3,-3433.3,-3914.3
-8727.5,-5224.2,-12495.9,-11220.3,-4420.1,-3690.8,-3428.8,-3910.6
-8720.2,-5219.5,-12480.7,-11220.2,-4414.9,-3688.1,-3421.4,-3903.8
-8708.9,-5216.7,-12462.8,-11213,-4407.1,-3683.3,-3412.3,-3894.1
-8702.8,-5213.1,-12450.2,-11206.7,-4405.6,-3682.5,-3409,-3890.3
-8704.3,-5217.6,-12452.3,-11205.4,-4406.6,-3684.3,-3411,-3892.4
-8710.2,-5227.1,-12465.4,-11212.8,-4411.8,-3687.1,-3418,-3899.6
-8718.6,-5232.9,-12483.7,-11219.1,-4419.3,-3690.2,-3427.6,-3908.2
-8726,-5236.3,-12498.8,-11225.4,-4425.1,-3693,-3434.8,-3914.8
-8728.2,-5232.8,-12500.6,-11232.9,-4422.4,-3692.5,-3432.5,-3913.8
-8723.8,-5227.1,-12495.8,-11227.1,-4415.1,-3688.1,-3423,-3905.3
-8715.1,-5219.9,-12491.9,-11217,-4408.5,-3683.9,-3413.7,-3896.2
-8706.7,-5213.1,-12467,-11212.3,-4405.6,-3681.8,-3408.1,-3889.5
-8702.3,-5207.5,-12454.2,-11208.5,-4404.6,-3680.6,-3406.7,-3887.5
-8706.9,-5206.7,-12459.5,-11211.2,-4408.9,-3683.3,-3413.2,-3895
-8709.9,-5213.5,-12459.8,-11212.8,-4415.1,-3688.1,-3420.9,-3905.7
-8718.6,-5224.8,-12474.5,-11214.1,-4417.8,-3689,-3426.1,-3910.9
-8725.7,-5230.7,-12489.3,-11219.4,-4417.7,-3689.5,-3427.6,-3913.3
-8721.7,-5226.5,-12483.3,-11217.4,-4416.6,-3688.5,-3424.1,-3910.1
-8716.2,-5222.9,-12467.7,-11210.5,-4412.2,-3686.2,-3418,-3904.3
-8707.4,-5219,-12454.8,-11202.6,-4407,-3684.5,-3411.4,-3897.1
-8698.4,-5214.9,-12442.5,-11196.9,-4403.4,-3682.3,-3405.7,-3891.4
-8700.5,-5214.7,-12446.8,-11201.1,-4403.3,-3681.8,-3407,-3892.8
-8705.6,-5217.6,-12459.1,-11208.1,-4407.1,-3684,-3413,-3898.8
-8713.4,-5222.5,-12477.7,-11217,-4411,-3686.3,-3420,-3905.8
-8721.3,-5230.3,-12495,-11224,-4417.4,-3689.3,-3427.9,-3912.9
-8722.7,-5239.4,-12498,-11224.5,-4415,-3689.5,-3426.1,-3912.7
-8716.8,-5235.7,-12489.5,-11221.2,-4409.1,-3686.4,-3417.9,-3904.9
-8709.4,-5230.5,-12472.5,-11212.9,-4406.7,-3685.4,-3413.4,-3899.3
-8702.4,-5231.9,-12453.4,-11203.8,-4408.6,-3685.6,-3411.8,-3894.8
-8700.2,-5232.2,-12446.8,-11202.8,-4409.2,-3685.6,-3411.3,-3893.7
-8704.8,-5228,-12453.7,-11213.6,-4412.6,-3687,-3416.2,-3898.6
-8710.6,-5224.2,-12467.9,-11226.9,-4416.6,-3689.6,-3422.9,-3906.4
-8718.8,-5221,-12486.9,-11232.8,-4421.3,-3693.1,-3430.6,-3915.2
-8726.8,-5218.6,-12501.8,-11232.3,-4423.7,-3694.8,-3434.5,-3918.9
-8725.6,-5219.7,-12500.1,-11227.9,-4421.3,-3693.9,-3431.6,-3914.9
-8719,-5222.8,-12485.1,-11221.9,-4418.6,-3693.2,-3425.9,-3909.6
-8708,-5223.3,-12463.8,-11214.6,-4414.5,-3691.4,-3418.7,-3902.7
-8699.4,-5219.2,-12448.9,-11214.9,-4410.9,-3688.3,-3413.2,-3897
-8699.1,-5217.1,-12447.4,-11217.3,-4412.1,-3687.4,-3414,-3897.1
-8707.4,-5228.4,-12460.7,-11212.5,-4413.7,-3688.1,-3418.2,-3902.4
-8716.8,-5233,-12480.8,-11213.1,-4415.2,-3690,-3423.2,-3910.3
-8723.6,-5230.6,-12500.8,-11216.6,-4418.7,-3692.3,-3428.7,-3916.1
-8724.5,-5226.1,-12516.2,-11218.4,-4417.3,-3691.5,-3427,-3914.4
-8719.5,-5218.7,-12501.4,-11215.8,-4418.5,-3690.9,-3425.7,-3911.3
-8711.3,-5215.1,-12478.9,-11204.9,-4412.5,-3687.7,-3417.5,-3903.5
-8702.5,-5217.2,-12456.3,-11196,-4407,-3685.3,-3410.2,-3896.6
-8694.5,-5218.5,-12434,-11193.9,-4409.6,-3686.7,-3410.9,-3896.9
-8695.1,-5219.4,-12435.4,-11200.2,-4410,-3686.3,-3411.8,-3897.5
-8705.1,-5231.9,-12455.4,-11215.8,-4412.3,-3687.7,-3416.9,-3902.7
-8715.4,-5238.4,-12478.5,-11229.5,-4416.8,-3690.6,-3424.5,-3913.1
-8722.6,-5230.8,-12489.1,-11232.5,-4421.2,-3692.2,-3429.3,-3917.9
-8722.6,-5217.5,-12491.9,-11229.5,-4418.6,-3691,-3426.9,-3915.2
-8715.1,-5210,-12482.2,-11223.5,-4410.8,-3687.4,-3418,-3907.7
-8705,-5210.7,-12465.1,-11210.4,-4405.3,-3683.8,-3409,-3898.6
-8697.3,-5209,-12447.5,-11197.7,-4402.9,-3681.3,-3404.5,-3892.1
-8694.8,-5207.3,-12443.3,-11197,-4405.2,-3681.1,-3406.6,-3891.5
-8701.8,-5207.9,-12455,-11206.6,-4406.8,-3682.3,-3410.6,-3896.5
-8711,-5213.1,-12476,-11219.1,-4413.2,-3685.7,-3419.8,-3904.9
-8721.8,-5220.9,-12500.8,-11228.9,-4419.4,-3690,-3428.5,-3912.9
-8726.2,-5230,-12507.3,-11229.4,-4419.3,-3692.1,-3429.3,-3915.8
-8722.6,-5233.9,-12496.4,-11222.7,-4416.8,-3691.3,-3424.6,-3912
-8714.4,-5227.7,-12476.3,-11214.7,-4411.5,-3688.6,-3417,-3905.2
-8705.7,-5215.8,-12455.3,-11209.4,-4405.1,-3685.2,-3407.6,-3897.3
-8701.2,-5209.7,-12446.1,-11208.5,-4403.7,-3683.2,-3403.9,-3893.6
-8704.7,-5213.3,-12452.9,-11211.7,-4408.7,-3684.8,-3409.8,-3898.1
-8710.6,-5226.6,-12467.2,-11213.3,-4411.5,-3686.7,-3415.3,-3903.8
-8719.2,-5233.6,-12489,-11217.4,-4414.3,-3688.4,-3422.2,-3911.3
-8725,-5234.1,-12501.8,-11221.7,-4418.2,-3691,-3427.4,-3917.2
-8723.1,-5239,-12496.8,-11221.3,-4417.4,-3691.8,-3425.1,-3916.2
-8717.4,-5239,-12483.4,-11222,-4413.9,-3690.8,-3420.1,-3910.8
-8707.6,-5228.4,-12465.9,-11218.1,-4408.1,-3688,-3412.4,-3902.8
-8701,-5221.1,-12452.4,-11214.6,-4404.8,-3687,-3407.5,-3898.4
-8700.3,-5219.4,-12453.1,-11215.7,-4404.3,-3687.3,-3407.8,-3897.9
-8703.8,-5221.5,-12466.1,-11215.2,-4406.3,-3688.3,-3411.4,-3900.5
-8712.8,-5225.5,-12495.4,-11216.3,-4409.8,-3690.2,-3417.6,-3907
-8723.6,-5233.2,-12510.2,-11224,-4414.5,-3693.7,-3425.5,-3915.9
-8727.8,-5243.6,-12511.7,-11225.6,-4416,-3694.3,-3426.9,-3917.9
-8721.9,-5240.7,-12497.7,-11221.5,-4413.5,-3693.9,-3423.4,-3914.2
-8710,-5227.1,-12468.2,-11214.8,-4416.7,-3695.3,-3423.1,-3910.2
-8698.1,-5213.9,-12444.3,-11207.7,-4411.9,-3690.7,-3414.2,-3898.8
-8696.6,-5209.5,-12439.4,-11204.8,-4408.3,-3687,-3409.8,-3893.6
-8702.3,-5216.1,-12447.7,-11207.1,-4409.7,-3686.3,-3412.5,-3895.8
-8710.5,-5224,-12462.1,-11213.1,-4412.5,-3686.8,-3418.6,-3902.3
-8722.4,-5230.8,-12489.4,-11224.4,-4417.3,-3690,-3427.8,-3911.2
-8728.5,-5233.4,-12507.2,-11231.7,-4421.1,-3691.6,-3432.3,-3915.9
-8726,-5232,-12503.7,-11230.7,-4418.8,-3690.4,-3429.1,-3913.4
-8719,-5229.7,-12486.4,-11224.7,-4414.5,-3688.3,-3423.1,-3907.5
-8710.4,-5231.3,-12466.2,-11219.8,-4407.5,-3684.8,-3413.1,-3899
-8705.1,-5233.3,-12451.4,-11215.8,-4402.3,-3682.6,-3405.5,-3892.7
-8703.8,-5233.5,-12450.4,-11212.5,-4402.3,-3682.2,-3405.3,-3891.5
-8710,-5235.8,-12466.5,-11213.4,-4404.1,-3683.9,-3409.4,-3895.5
-8720.3,-5241.6,-12486.8,-11218.4,-4411.6,-3689,-3420.5,-3906.9
-8726.7,-5244.6,-12503.7,-11228.8,-4420.4,-3693.1,-3430.5,-3915.4
-8729.2,-5244.5,-12509.5,-11238.9,-4425.2,-3695.3,-3434.8,-3917.8
-8725.1,-5242.7,-12502.2,-11241.6,-4420.9,-3693.1,-3428.8,-3913.9
-8716.3,-5243.7,-12486.3,-11233.4,-4413.8,-3689.1,-3419.3,-3905.4
-8708,-5240.1,-12465.6,-11213.6,-4408,-3686.7,-3411.2,-3896.6
-8703.9,-5232.6,-12453.4,-11199.7,-4405.5,-3684.6,-3407.3,-3891.8
-8707.6,-5233.1,-12460,-11200,-4406.5,-3684.1,-3409.8,-3893.5
-8714.9,-5232.8,-12475.1,-11212.2,-4412.6,-3687.4,-3417.9,-3901.2
-8723.6,-5235.6,-12492.9,-11224.1,-4418.7,-3691.4,-3426.6,-3910.5
-8729.2,-5239.5,-12505.4,-11228.8,-4421.2,-3693,-3430.6,-3915.8
-8729,-5238.4,-12504.3,-11229.3,-4418.8,-3692.8,-3428.4,-3914.5
-8722.7,-5233.4,-12491.3,-11223.9,-4413.1,-3690.2,-3421.4,-3908.4
-8713.3,-5229.4,-12471.8,-11215.3,-4407.3,-3686.6,-3413,-3900.3
-8703.5,-5224.4,-12455.5,-11208,-4402.1,-3682.4,-3405,-3891.4
-8704.6,-5223.3,-12467,-11208.3,-4402,-3681.1,-3404.3,-3890
-8713.6,-5226.1,-12481.1,-11218,-4406.8,-3684.2,-3411.9,-3899
-8719.7,-5227.8,-12492.3,-11225.9,-4415,-3688.3,-3421.5,-3906.6
-8727.4,-5234,-12503.8,-11234.1,-4421.5,-3692.8,-3431.1,-3915.2
-8729.1,-5245,-12499.4,-11236.7,-4425.2,-3697.1,-3435.3,-3920.9
-8723.5,-5258.2,-12488.3,-11231.1,-4420.2,-3694.5,-3429,-3914.4
-8716.3,-5256.9,-12474.4,-11226.8,-4414.3,-3690.6,-3421.1,-3905
-8707.7,-5246.4,-12456.1,-11220.5,-4410.5,-3687.1,-3413.4,-3896.7
-8704.2,-5233.9,-12443.6,-11215.9,-4409.5,-3685.5,-3410.5,-3893.3
-8708,-5223,-12453.6,-11220,-4413.1,-3687.2,-3416.2,-3897
-8715.4,-5221,-12471.7,-11224.6,-4415.7,-3689.5,-3421.4,-3903
-8725,-5223.2,-12492.8,-11233,-4420.4,-3693.2,-3429,-3911.7
-8731.9,-5228,-12504.8,-11242,-4426.9,-3696.7,-3436.6,-3918.6
-8731.5,-5235.9,-12503.1,-11239.1,-4424.5,-3696.3,-3434.1,-3917.3
-8724.5,-5236.8,-12488.2,-11228.7,-4420.1,-3694.4,-3427.7,-3910.8
-8715.1,-5234.4,-12470.3,-11221,-4414.3,-3691.2,-3419,-3901.7
-8706.9,-5230.1,-12459.2,-11213.2,-4408.9,-3687.5,-3411.2,-3892.5
-8705.9,-5227.8,-12455.6,-11209.4,-4408.6,-3687.2,-3411.6,-3892.7
-8709.3,-5228.3,-12463.8,-11212.2,-4411.9,-3688.8,-3416.4,-3898.3
-8718.3,-5229.5,-12481.9,-11221.5,-4415.8,-3691.3,-3422.7,-3906
-8727.9,-5231.5,-12501,-11231.6,-4422.8,-3694.7,-3431.2,-3914.6
-8732.2,-5237.6,-12510.5,-11236.5,-4425.6,-3697.5,-3434.9,-3918.6
-8729.1,-5243,-12502.2,-11230,-4424.2,-3697.3,-3432.6,-3915.1
-8721.3,-5241.7,-12486.8,-11218.7,-4417.8,-3694.4,-3425,-3907
-8712.1,-5237.9,-12470.5,-11210,-4410.5,-3689.5,-3416.1,-3897.3
-8706,-5236.5,-12460.7,-11208,-4407.1,-3688,-3411.5,-3893.5
-8707.3,-5245.2,-12462.4,-11207.3,-4411.3,-3690.2,-3416.7,-3896.5
-8712.8,-5247.8,-12472.4,-11219.7,-4415.9,-3693,-3423.9,-3903.2
-8723,-5240.9,-12491.1,-11239.3,-4421.1,-3696.4,-3432,-3912.1
-8730.6,-5239.3,-12505.7,-11246,-4424.2,-3699.2,-3437.2,-3918.8
-8730.9,-5248,-12504.1,-11241.7,-4420.3,-3698.5,-3434,-3917.8
-8723.3,-5240.2,-12492.7,-11227,-4414.4,-3694.3,-3425.4,-3909.8
-8713.6,-5221,-12485.4,-11211.6,-4410.2,-3689,-3416.7,-3898.8
-8706.5,-5210,-12466.1,-11206.1,-4405.4,-3685.7,-3410.2,-3892.7
-8704.5,-5207.8,-12458.4,-11206.6,-4402.6,-3683.4,-3407.1,-3891
-8708.6,-5215.5,-12463.2,-11212.8,-4405.1,-3685.7,-3411.5,-3896.9
-8712.9,-5219.7,-12464.3,-11221.3,-4412,-3690,-3420.3,-3906.4
-8719.7,-5221.6,-12480.4,-11226.7,-4418.8,-3691.4,-3428.8,-3911.7
-8725,-5231.8,-12493.8,-11226.2,-4419.1,-3692.4,-3430.8,-3914.7
-8723.7,-5240.1,-12488.5,-11223.3,-4417.7,-3691.2,-3427.9,-3911.5
-8717.5,-5239.5,-12468.8,-11223.2,-4411.2,-3687.5,-3418.8,-3903.5
-8709.1,-5231.4,-12454.1,-11219.8,-4404.3,-3685.1,-3410.9,-3896.1
-8700.8,-5224.5,-12440,-11212.9,-4399,-3682.6,-3404,-3891
-8702.4,-5220.1,-12443.2,-11214.4,-4401.2,-3682.9,-3406.7,-3894
-8708.8,-5220.6,-12456.3,-11220.1,-4407.7,-3686.3,-3414.3,-3901.1
-8717,-5226.1,-12474.1,-11225.4,-4410.5,-3687.7,-3420,-3907.1
-8724.3,-5228,-12491.4,-11231.8,-4412.4,-3688.4,-3424.2,-3911.6
-8723.4,-5225.6,-12494.8,-11234.2,-4410.4,-3686.4,-3421.4,-3909.1
-8718.3,-5220.3,-12488.4,-11228.1,-4404.1,-3681.6,-3412.7,-3899.8
-8711.4,-5217.7,-12472.4,-11219.3,-4396.6,-3677.2,-3403.5,-3892
-8702.3,-5215.1,-12452.5,-11210.7,-4390,-3673.4,-3394.3,-3883.8
-8699,-5217,-12444.7,-11207.7,-4388.6,-3672.5,-3392.3,-3881.4
-8704.8,-5222.5,-12453.6,-11212.6,-4389.5,-3673.4,-3395.8,-3885.1
-8713,-5228.5,-12472.6,-11221.7,-4391.8,-3675.2,-3400.6,-3891.1
-8724.1,-5234.7,-12491.6,-11230.5,-4399.3,-3678.5,-3409.5,-3899.2
-8729.9,-5233.2,-12501,-11232.8,-4403.7,-3681,-3415.4,-3903.5
-8726.9,-5228.3,-12497.9,-11227.8,-4402.3,-3679.4,-3413,-3899.7
-8721,-5224.7,-12483.3,-11219.9,-4394.7,-3676.6,-3403.7,-3892.9
-8711.8,-5225.2,-12464,-11209.8,-4388.4,-3673.1,-3394.5,-3884.8
-8703.9,-5227.7,-12451.7,-11201,-4388,-3670,-3390.5,-3878.4
-8703.7,-5228.2,-12453,-11203.2,-4389.8,-3670.1,-3392.1,-3879.4
-8709.6,-5226.3,-12464.3,-11210.7,-4396.1,-3673.4,-3400.3,-3885.9
-8719.4,-5224,-12481.5,-11219.8,-4402.1,-3676.8,-3409,-3894
-8729.7,-5226.6,-12502.3,-11229.2,-4407.1,-3679.1,-3415.3,-3900
-8736.1,-5232.2,-12521,-11236.5,-4407.8,-3679.1,-3414.7,-3900.1
-8735.8,-5237.4,-12511,-11240.1,-4404,-3677.4,-3409.5,-3896
-8729.7,-5240.7,-12490.9,-11237.5,-4400.2,-3674.7,-3403.1,-3888.5
-8716.3,-5240.7,-12464.5,-11225.2,-4395,-3671.8,-3395.6,-3880.3
-8701.3,-5234.9,-12436,-11209.9,-4394.2,-3672.1,-3394,-3880
-8698.4,-5225,-12436.5,-11206.9,-4394.7,-3672.8,-3396,-3882.7
-8703.5,-5221.3,-12454.2,-11216.9,-4398.3,-3675.5,-3402.4,-3889.6
-8712.5,-5231.6,-12474.3,-11230.3,-4405.1,-3679.8,-3412,-3898.6
-8720.3,-5239.9,-12486.1,-11232.6,-4409.8,-3681.7,-3418.1,-3904.1
-8721.4,-5240.3,-12487.8,-11230.4,-4408.2,-3682,-3416.6,-3902.2
-8714.2,-5233.7,-12474.5,-11224.3,-4402.8,-3680.2,-3409.2,-3895.2
-8701.5,-5228.8,-12453.3,-11218.2,-4397.2,-3677.2,-3401.1,-3887.7
-8691.2,-5222.1,-12435.5,-11212.6,-4393.1,-3675,-3395,-3882.9
-8692,-5225.1,-12436.5,-11213.3,-4392.7,-3674.3,-3395,-3883
-8697.7,-5230,-12450.5,-11219.5,-4398.4,-3677.5,-3402.6,-3889.7
-8703.7,-5230.9,-12469,-11228.1,-4403.9,-3680.9,-3410.5,-3897.3
-8710.7,-5232.8,-12490.5,-11234.5,-4407.5,-3683.1,-3416.5,-3902.4
-8714.4,-5242.5,-12497.4,-11236.1,-4408.3,-3684.6,-3419.4,-3905.7
-8711.7,-5247.3,-12485.9,-11231.7,-4408.1,-3684.8,-3417.4,-3902.2
-8703.6,-5240.9,-12467.5,-11225.6,-4402.4,-3682.2,-3410.1,-3894.9
-8693.6,-5231.2,-12448,-11220.6,-4396.5,-3678.8,-3401.5,-3886.5
-8687.9,-5226,-12437.4,-11216,-4394.3,-3676.9,-3397.8,-3883.7
-8692.1,-5232.4,-12443.7,-11217.8,-4395.6,-3677.6,-3400.4,-3887.7
-8700.9,-5239.1,-12459.3,-11223.4,-4400.3,-3680.4,-3407.8,-3894.9
-8710,-5243.2,-12479.1,-11230.1,-4404.6,-3683.2,-3415.1,-3903.1
-8715.6,-5244.3,-12490.8,-11235.9,-4407.1,-3686.1,-3418.9,-3909
-8714.5,-5239.5,-12486.6,-11241.7,-4405,-3685.8,-3415.2,-3907.2
-8707.7,-5236,-12471.3,-11238.1,-4404.5,-3684.1,-3410.8,-3900.6
-8698.4,-5235.6,-12450.8,-11224.3,-4401,-3681.3,-3404.1,-3892
-8692.1,-5233.1,-12435.8,-11213.6,-4397.9,-3678.7,-3399.1,-3886.4
-8689.7,-5233.7,-12435.5,-11208.7,-4397.9,-3678.3,-3399.6,-3886
-8696,-5243.7,-12451.4,-11207.4,-4398.4,-3679.7,-3402.8,-3891.3
-8705.3,-5249.9,-12483,-11216.5,-4402.8,-3682.1,-3409.3,-3897.8
-8716.3,-5249.7,-12500.3,-11231.8,-4410,-3687.4,-3420,-3908
-8720.1,-5248.7,-12502.3,-11235.8,-4411.7,-3689.1,-3421.9,-3910.6
-8714.9,-5249,-12487.3,-11229.7,-4407.9,-3688.3,-3416.9,-3906.7
-8702.9,-5242.7,-12455.7,-11221.3,-4405.8,-3688.5,-3411.8,-3902.1
-8692.7,-5241.4,-12432.5,-11209.1,-4397.7,-3683.3,-3400.7,-3891.4
-8689.6,-5243.1,-12428.3,-11200.5,-4395.6,-3680.2,-3396.7,-3886.4
-8694.6,-5243.7,-12437.9,-11204.8,-4399.8,-3681,-3401.5,-3891.3
-8704.4,-5247.4,-12453.2,-11219.6,-4403.7,-3683.5,-3408.8,-3899.7
-8714.1,-5247.7,-12478.3,-11235.3,-4411.2,-3688.3,-3419.4,-3907.7
-8718.9,-5241.1,-12491.4,-11243.7,-4412.4,-3690.5,-3422.6,-3912.8
-8718.2,-5235,-12487.1,-11242.9,-4411.8,-3691.5,-3421.2,-3912.4
-8710.1,-5232.4,-12469.8,-11235,-4407.7,-3689.1,-3414.7,-3906
-8701.3,-5232.3,-12450.2,-11226.7,-4402.4,-3684.7,-3405.8,-3896.3
-8693.4,-5229.3,-12436.2,-11220,-4399.3,-3681.2,-3399.8,-3888.7
-8692,-5227.3,-12436.3,-11217.2,-4400.7,-3681.5,-3400.8,-3887.9
-8697.4,-5229.8,-12452.5,-11220.9,-4402.8,-3682.7,-3405.3,-3892.2
-8708.2,-5235.7,-12471.5,-11229.6,-4404.9,-3685.4,-3411.7,-3900.9
-8717.6,-5240.1,-12488.7,-11243.6,-4411.8,-3688.9,-3420.7,-3909.5
-8718.9,-5243,-12493.5,-11248.3,-4414.7,-3689.8,-3423.9,-3911.7
-8715,-5244.3,-12483.9,-11240.3,-4411,-3686.9,-3418.4,-3905.5
-8705.7,-5243.6,-12464.6,-11223.8,-4406.7,-3682.8,-3410,-3896.5
-8697.1,-5242.1,-12445.8,-11208.5,-4401.4,-3679.3,-3402.1,-3888.2
-8691.6,-5239.6,-12437.1,-11203.9,-4396.8,-3676,-3397.4,-3882.9
-8695.1,-5238.1,-12448.2,-11206.8,-4398.8,-3675.6,-3400.5,-3885.3
-8702.3,-5238.6,-12463.1,-11214.7,-4402.9,-3678.6,-3406.5,-3893.2
-8711.6,-5240.7,-12479.9,-11227.4,-4404.1,-3680.7,-3411.8,-3900.9
-8718.4,-5246.2,-12491.9,-11234.3,-4411.4,-3683.5,-3419.4,-3906.5
-8717.7,-5250.4,-12487.6,-11229.4,-4414.7,-3684,-3420.5,-3904.6
-8709,-5244.7,-12475.8,-11222.9,-4408.8,-3680.4,-3412.8,-3897.2
-8700.9,-5242.6,-12462.1,-11223.7,-4406.1,-3677.2,-3406.8,-3888.9
-8692.8,-5240.2,-12449.7,-11216.8,-4403.4,-3674.6,-3402.2,-3881.2
-8690.1,-5233.1,-12454.9,-11208.8,-4398.6,-3672.9,-3398.4,-3878.3
-8698.2,-5236.4,-12463.2,-11209.6,-4402.2,-3676.1,-3404.7,-3886
-8705.8,-5247.8,-12474.3,-11213.2,-4405.9,-3679.8,-3411.4,-3894.3
-8713,-5254.1,-12487.6,-11223,-4412.2,-3686,-3420.9,-3904.8
-8713.1,-5250,-12481.8,-11231.8,-4414.8,-3689.9,-3424.1,-3911.3
-8705.7,-5244.1,-12467.6,-11231.6,-4411.4,-3687.1,-3417.8,-3903.8
-8700.2,-5238.1,-12455.3,-11224.6,-4406,-3683.4,-3410.3,-3895.2
-8693.6,-5233.4,-12438,-11221.1,-4399.5,-3680.2,-3401.5,-3887.3
-8688.3,-5234,-12424.8,-11224.2,-4397.5,-3678.3,-3398.2,-3883.7
-8690.7,-5231.4,-12433.3,-11224.5,-4400,-3681.4,-3403.2,-3888.5
-8697.3,-5231.9,-12449.1,-11222.8,-4402.6,-3684,-3408.7,-3894.7
-8706.1,-5234.2,-12469.2,-11222.9,-4407.2,-3686.8,-3416.6,-3902.6
-8713.2,-5240.1,-12483.7,-11229.2,-4412.5,-3690,-3424,-3909.1
-8713.1,-5244.2,-12484,-11230.1,-4411.8,-3690.2,-3423,-3908
-8707,-5242.8,-12472.3,-11227,-4407.5,-3689,-3416.8,-3902.8
-8697.1,-5236.4,-12454.6,-11222.1,-4401.6,-3686.1,-3407.6,-3893.6
-8689,-5229.8,-12441.5,-11218.2,-4397,-3682.4,-3400.4,-3883.5
-8688.5,-5229.8,-12438.3,-11216.1,-4397.8,-3682.9,-3401.9,-3886.3
-8693.4,-5235.5,-12447.8,-11216.5,-4403,-3686,-3409.1,-3894.4
-8701.5,-5243.5,-12468.7,-11218.9,-4408.7,-3689.2,-3417.3,-3902.8
-8710.7,-5251.5,-12491,-11229.6,-4412.1,-3692.1,-3424.2,-3911.3
-8714.5,-5254.4,-12496.7,-11240.7,-4414.2,-3694.5,-3427.2,-3915.3
-8712.8,-5251.8,-12487.4,-11240.3,-4411.2,-3693.5,-3422,-3911.7
-8704.6,-5248.5,-12471.2,-11230.3,-4406.8,-3689.8,-3414.5,-3903.4
-8695.6,-5244.4,-12453.8,-11218.3,-4400.7,-3686,-3406.8,-3894.7
-8689.7,-5240.6,-12442.2,-11212.6,-4399.8,-3685.1,-3403.7,-3891.6
-8690.1,-5240.7,-12443,-11214.6,-4400.9,-3685.4,-3405.2,-3893.3
-8696.3,-5245.3,-12455.7,-11220.5,-4400.6,-3687.2,-3408.8,-3899.6
-8707.4,-5247.7,-12476.1,-11228.3,-4407.3,-3691.5,-3418.5,-3909
-8716.7,-5247.7,-12493,-11233.2,-4417.8,-3695.4,-3428.8,-3915.6
-8717.3,-5250.1,-12495,-11233.8,-4417.1,-3694.8,-3427.2,-3914.5
-8710.5,-5248.2,-12486.9,-11232.8,-4409.4,-3690.6,-3418.1,-3906.6
-8702.3,-5241.6,-12482,-11229,-4405.4,-3688.1,-3411.2,-3898.5
-8694.9,-5236.6,-12460.5,-11224.7,-4402.7,-3686.4,-3406.8,-3893.7
-8692.1,-5233.6,-12448.8,-11223.3,-4400.9,-3685,-3404.6,-3891.7
-8696.7,-5235.9,-12453.4,-11230.7,-4403.4,-3687.1,-3409.2,-3897.3
-8702.1,-5243.1,-12459,-11235.7,-4411.8,-3692.6,-3420.1,-3907.9
-8709.8,-5252.5,-12474.6,-11235,-4415.4,-3694,-3425.8,-3912.8
-8715.5,-5260.8,-12488.1,-11233.8,-4416.9,-3694.8,-3428.5,-3914.9
-8713.2,-5265,-12482.3,-11228,-4415.6,-3692.7,-3425.2,-3910.2
-8708,-5256.3,-12464.5,-11223.7,-4410.1,-3688.2,-3417.8,-3902.3
-8700.3,-5243.2,-12452,-11218.7,-4405.3,-3685.9,-3411.4,-3894.9
-8693,-5233.2,-12443.4,-11215.2,-4401.2,-3683.8,-3405.8,-3890.1
-8693.8,-5229.1,-12446.1,-11218.8,-4401.8,-3683.8,-3407,-3892
-8700.2,-5229.7,-12455.8,-11224.3,-4405.3,-3685.6,-3412.2,-3897.8
-8707.1,-5233.8,-12471.7,-11228.3,-4409.8,-3688,-3419.4,-3904.1
-8714.5,-5242,-12487.9,-11232.4,-4414.2,-3690.7,-3425.6,-3910.4
-8716,-5251.8,-12492.1,-11233.4,-4414.7,-3691.6,-3425.6,-3910.2
-8711.6,-5250.9,-12484.1,-11231.9,-4412,-3690.2,-3420.6,-3903.7
-8705.9,-5245.8,-12468.1,-11228.6,-4410.1,-3688.8,-3416.1,-3898.2
-8698.3,-5238.1,-12449.6,-11218.7,-4403,-3684.9,-3407,-3890.3
-8693,-5231.3,-12443.1,-11212.1,-4400.7,-3683.1,-3404.1,-3888.9
-8697.6,-5231.9,-12451.5,-11215.1,-4402.9,-3684.2,-3408.2,-3893.3
-8706.1,-5234.4,-12468.4,-11225.2,-4408.1,-3686.6,-3415.2,-3900
-8713.7,-5237.3,-12487.4,-11235.2,-4415.2,-3690.1,-3424.4,-3908
-8717.5,-5240.1,-12497,-11238.4,-4416.7,-3690.9,-3427.5,-3909.5
-8716.7,-5244.1,-12493.4,-11235.5,-4411.5,-3688.2,-3421.8,-3905.8
-8710.4,-5247.9,-12478.1,-11235.9,-4408.4,-3686.5,-3415.5,-3899.9
-8700.2,-5245.3,-12455.9,-11229.7,-4404.2,-3684.6,-3407.9,-3892
-8691.6,-5239.1,-12439.8,-11221.7,-4399.1,-3682.3,-3401.1,-3886.6
-8692.1,-5235.8,-12440.9,-11217.2,-4397.8,-3681.7,-3400.8,-3887.5
-8699.2,-5236.7,-12454.8,-11218.2,-4402,-3683.9,-3407,-3894.2
-8707.8,-5239,-12472.8,-11225.9,-4409.1,-3688.3,-3416.8,-3903.2
-8715.9,-5242.9,-12494,-11232,-4413.7,-3691.8,-3423.6,-3910.3
-8718,-5248,-12512.6,-11233.1,-4412.4,-3691.2,-3421.7,-3909.2
-8713,-5251.3,-12498.6,-11235.7,-4410,-3690.1,-3417.8,-3905
-8704.1,-5249.3,-12475,-11227.4,-4406.5,-3687.3,-3411,-3897.5
-8694.9,-5242.2,-12452.2,-11212.7,-4402.1,-3684.9,-3404.2,-3890.3
-8685.8,-5233.7,-12428.4,-11207.4,-4401.6,-3685.7,-3402.9,-3890.9
-8686.7,-5230.2,-12431.5,-11209.9,-4400,-3684.1,-3402.2,-3891.5
-8696.5,-5233.2,-12451.6,-11218.7,-4404.1,-3685.7,-3408.5,-3896.9
-8707.5,-5236.6,-12471.1,-11229.5,-4408.1,-3688.6,-3416.1,-3904.4
-8715.1,-5240.6,-12481.4,-11236.2,-4409.1,-3689.6,-3418.7,-3908.3
-8715.8,-5244.8,-12483.6,-11235.7,-4408.9,-3689.8,-3417.8,-3906.7
-8709.4,-5244.7,-12471.2,-11228.8,-4406.2,-3688.7,-3412.5,-3900.3
-8697.9,-5244.7,-12451.8,-11217.4,-4404.6,-3686.5,-3407.3,-3892.2
-8687.6,-5247,-12434.6,-11209.4,-4400.9,-3684.5,-3401.5,-3887.1
-8687.9,-5248.3,-12433.9,-11212.6,-4399.4,-3683.7,-3400.5,-3887.4
-8696.6,-5249.5,-12448.6,-11216.6,-4404.2,-3685.9,-3407.2,-3893.6
-8706.3,-5252.1,-12470.1,-11226.5,-4410.6,-3689.1,-3415.1,-3901.4
-8714.5,-5247.9,-12491.3,-11238.8,-4413.9,-3691.2,-3420.3,-3907.5
-8718.6,-5241.6,-12496.6,-11241,-4415.6,-3693.6,-3423.8,-3912.1
-8713.4,-5238.2,-12484.2,-11233.5,-4412.1,-3691.8,-3418.4,-3906.6
-8703.4,-5235.4,-12464.9,-11224.5,-4404.5,-3687.2,-3408.3,-3897
-8694.4,-5234.5,-12445.8,-11217.1,-4398.2,-3683.1,-3399.9,-3888.5
-8688.6,-5230.1,-12438.1,-11211.5,-4395,-3680.8,-3395.9,-3884.3
-8691.1,-5226.7,-12446.5,-11210.6,-4398.8,-3681.9,-3400.3,-3887.3
-8698.1,-5229.9,-12462.5,-11215.7,-4402.7,-3684.2,-3406.7,-3894.2
-8708.7,-5236.1,-12484,-11228.2,-4409.9,-3687.9,-3416.7,-3902.8
-8713.9,-5240.8,-12496,-11236.3,-4415.5,-3691.9,-3423.5,-3909
-8712.1,-5240.8,-12489.7,-11230,-4413.7,-3690.9,-3420.6,-3907.2
-8705.1,-5237.1,-12473.8,-11220.9,-4408.4,-3687.7,-3413.1,-3900.2
-8695.6,-5234.1,-12453,-11214.4,-4402.1,-3683.8,-3403.7,-3891.2
-8688.8,-5230.3,-12438.6,-11211.1,-4397.1,-3680.6,-3397.8,-3884.7
-8688.2,-5228.5,-12440.4,-11211.4,-4395.2,-3679.2,-3397.2,-3885.1
-8692.2,-5233.3,-12457.3,-11215.9,-4397.4,-3680.3,-3401.5,-3889.5
-8701.8,-5244.5,-12487.3,-11217.7,-4405,-3683.4,-3410.3,-3896.5
-8711.8,-5257.8,-12501,-11223.3,-4410,-3686.6,-3418.2,-3905.4
-8715.3,-5258.7,-12502.2,-11234.5,-4409.9,-3687.4,-3419,-3907.4
-8708.8,-5250.6,-12484.2,-11230.4,-4406.9,-3687,-3414.5,-3902.5
-8696.2,-5239.8,-12453,-11220.8,-4403.5,-3686.6,-3408.5,-3897.5
-8684.6,-5232.7,-12429.1,-11209.4,-4395.5,-3681.4,-3397.2,-3885.9
-8681.4,-5227.1,-12423.3,-11208.2,-4395.7,-3679.1,-3395.3,-3880.8
-8686.5,-5224.6,-12434,-11213.9,-4401.9,-3682,-3402.2,-3886.8
-8694.9,-5225.7,-12449.1,-11218.8,-4405.5,-3684,-3408.4,-3894.5
-8706.4,-5236.1,-12476.1,-11229.3,-4412.4,-3689.2,-3420.3,-3905.2
-8711.9,-5243.3,-12490.8,-11235.3,-4416.9,-3693.1,-3426.3,-3911.2
-8711.4,-5241.5,-12490.1,-11231.9,-4414.3,-3692.8,-3423.2,-3909.2
-8704.6,-5236.3,-12474.7,-11223.2,-4410.2,-3690.9,-3416.7,-3903.1
-8694.3,-5230.6,-12453,-11212.5,-4403.3,-3687.1,-3406.9,-3894.1
-8684.3,-5226.3,-12434.8,-11203.3,-4396.2,-3682.8,-3397.7,-3885.5
-8682.7,-5226.6,-12432.8,-11205.9,-4396.8,-3681.5,-3397.4,-3883.3
-8689.6,-5234.4,-12448.8,-11218.4,-4399.3,-3682.2,-3402.4,-3887.2
-8699.9,-5239.8,-12467.2,-11228.6,-4405.2,-3685.4,-3412.3,-3897.3
-8709.4,-5241.7,-12485.1,-11233.3,-4410.9,-3689.5,-3420.4,-3906.9
-8713.1,-5247.2,-12491.6,-11234.1,-4411.1,-3690.6,-3421,-3908.8
-8708.1,-5253.9,-12482.3,-11232.8,-4408.8,-3689.1,-3417.2,-3903.6
-8698.5,-5246.5,-12463.8,-11228.8,-4404.4,-3685.9,-3410.1,-3895.4
-8689.5,-5240.5,-12444.3,-11213.4,-4403.4,-3683.4,-3405.6,-3887
-8685.1,-5243.4,-12435.4,-11200.3,-4399.4,-3681.2,-3401.8,-3883
-8687.3,-5249.3,-12441.8,-11202.5,-4399.7,-3682,-3405.1,-3886
-8695.8,-5245.4,-12456.4,-11215.8,-4406.4,-3685.7,-3413.2,-3894.7
-8704.6,-5236.4,-12473.6,-11230.1,-4411.8,-3689.8,-3421.2,-3904.6
-8711.2,-5230.2,-12486.1,-11236.5,-4415.2,-3692.8,-3425.9,-3911.1
-8710,-5229.8,-12482.8,-11232.3,-4413.6,-3692.2,-3423.6,-3909.8
-8702.4,-5229.8,-12469.3,-11223.2,-4408.9,-3689.8,-3417,-3903.6
-8694.4,-5231.8,-12451.8,-11212.8,-4404.7,-3687.2,-3410.7,-3895.5
-8686.1,-5243.7,-12438,-11200.7,-4398.6,-3683.9,-3402.7,-3888.4
-8685.6,-5246.7,-12447.3,-11196.3,-4400.7,-3683,-3403.1,-3886.4
-8693.1,-5238.3,-12456.8,-11206.6,-4405.3,-3684.4,-3409.4,-3892.2
-8701.1,-5233,-12471.8,-11221.3,-4409.1,-3686.7,-3416.5,-3899.9
-8708.3,-5239,-12483.9,-11231.5,-4415.4,-3691.4,-3426.1,-3909.3
-8708.2,-5242.9,-12475.7,-11233.1,-4419,-3694.6,-3429.9,-3914.4
-8704.9,-5236.4,-12462.8,-11225.9,-4413.6,-3690.9,-3422,-3906.3
-8697.5,-5231.2,-12449.8,-11219.8,-4406.7,-3686.6,-3412.4,-3897.5
-8688.6,-5227.4,-12432.2,-11216.6,-4401.8,-3682.9,-3404.6,-3889.9
-8685.4,-5229.6,-12420.2,-11217.3,-4398.3,-3680.1,-3400.3,-3885.9
-8691.2,-5237.7,-12433.3,-11221.2,-4401.1,-3683.1,-3406,-3890.8
-8698.7,-5245.2,-12448.4,-11220.5,-4406.1,-3685.6,-3412.2,-3896.8
-8705.1,-5251.2,-12466.8,-11229,-4413,-3690,-3421.6,-3905.8
-8712.5,-5250.1,-12481,-11240.4,-4416.1,-3692.9,-3427.5,-3912.3
-8713.1,-5241.9,-12480.5,-11238.3,-4417.2,-3692.8,-3427.2,-3910.8
-8706.9,-5235.4,-12468.3,-11228.3,-4413.6,-3690.3,-3420.9,-3904.1
-8696.8,-5232.2,-12452.6,-11214.9,-4407.7,-3686.4,-3411.5,-3894.8
-8687.6,-5231.3,-12439.2,-11204.1,-4402.7,-3682,-3403.2,-3885.3
-8687.2,-5228.2,-12434.1,-11203.5,-4401.8,-3681.3,-3403.4,-3886.1
-8692.3,-5231.9,-12441.7,-11208,-4404.3,-3683.4,-3408.8,-3892.4
-8700.6,-5241.1,-12457.5,-11215,-4409,-3686.3,-3416.5,-3900.4
-8708.4,-5243.9,-12474.7,-11224.6,-4415.1,-3689.5,-3424.5,-3908.5
-8712.5,-5241.8,-12483.7,-11230.8,-4418.1,-3691.7,-3427.6,-3912.5
-8709,-5235.8,-12477.3,-11228.3,-4414.8,-3690.8,-3423.3,-3907.8
-8701.3,-5230.1,-12464.4,-11222.5,-4408.1,-3687.5,-3414.5,-3900
-8692.8,-5228.7,-12450.7,-11216.2,-4402.2,-3683.2,-3406,-3890.7
-8686.9,-5229.2,-12439.4,-11209.1,-4399.9,-3681.2,-3401.4,-3886.6
-8687.7,-5230.4,-12437.9,-11209.1,-4402.5,-3681.8,-3404.2,-3889.1
-8692.4,-5233.4,-12447.9,-11217,-4406.6,-3683.8,-3410.3,-3895
-8701.2,-5237.8,-12465.9,-11226.4,-4413.7,-3688.2,-3419.7,-3903.6
-8708.8,-5240.2,-12483.2,-11230.3,-4416.9,-3691.1,-3426.3,-3910.8
-8709.7,-5240.9,-12484.7,-11228.3,-4414.8,-3690.7,-3425,-3910.8
-8704.5,-5239.6,-12477.1,-11223.4,-4413,-3688.9,-3420.4,-3904.4
-8693.9,-5238.1,-12469.6,-11219.1,-4408.3,-3684.8,-3411.3,-3893.8
-8685.1,-5236.5,-12447.8,-11212.6,-4403.6,-3682.9,-3405.2,-3888.5
-8682.6,-5240.5,-12437.3,-11208.7,-4402.1,-3681.8,-3403.8,-3886.7
-8688,-5241,-12444.2,-11217.6,-4406.5,-3685.4,-3410.5,-3894.4
-8691.8,-5238.5,-12447.1,-11221.1,-4412.5,-3691.1,-3419.3,-3905.2
-8699.3,-5237.7,-12460.8,-11225,-4416.8,-3692.4,-3425.2,-3909.7
-8706,-5240.2,-12474.9,-11231.7,-4418.4,-3693,-3427.7,-3911.6
-8704.7,-5240.2,-12471.9,-11229,-4416.4,-3692.6,-3424.6,-3909.2
-8698.4,-5234.8,-12456.3,-11220.5,-4411.6,-3689.6,-3418.1,-3902.5
-8691.1,-5233.1,-12444.8,-11214,-4406.3,-3686.9,-3411.6,-3895.2
-8683.3,-5231.9,-12433,-11211.3,-4403.5,-3685.4,-3406.8,-3890.6
-8683.7,-5230.3,-12434.2,-11214.7,-4404.1,-3685.6,-3408.1,-3891.9
-8689.7,-5235,-12445.4,-11224.5,-4408,-3688.2,-3414.4,-3897.8
-8699.3,-5252.5,-12464.3,-11231.7,-4412.9,-3690.2,-3421.8,-3903.5
-8707.9,-5265.2,-12482.3,-11232.5,-4416.6,-3692.8,-3427.1,-3909.5
-8709,-5264.5,-12485,-11231.2,-4417.3,-3693.9,-3427.1,-3910.6
-8701.5,-5256.1,-12474.2,-11230.4,-4412.9,-3690.4,-3420.8,-3902.3
-8694.5,-5247.6,-12456.1,-11223.4,-4408,-3687.4,-3414.4,-3895.5
-8686.2,-5230.1,-12435.3,-11211.8,-4401.6,-3684.5,-3406.4,-3889
-8683.2,-5217.6,-12427.7,-11208.2,-4399.5,-3683.5,-3404.4,-3887.5
-8685.4,-5217,-12436.2,-11213.2,-4403.5,-3683.9,-3409.1,-3891.2
-8694.7,-5229.4,-12454.3,-11225.2,-4406.3,-3685.5,-3414.9,-3898
-8704.5,-5252.7,-12474.2,-11230,-4412.7,-3689.4,-3423.9,-3907
-8709.1,-5261.6,-12484.6,-11224,-4414.9,-3691.5,-3427.3,-3910.7
-8706.8,-5248.8,-12481.7,-11222.8,-4417.2,-3691.3,-3427.3,-3907.6
-8699.5,-5230.6,-12467.4,-11228.4,-4412.9,-3689.3,-3420.7,-3902.3
-8689.2,-5222.1,-12445.6,-11222.9,-4406.4,-3686.1,-3411.3,-3894
-8682,-5219.2,-12429.9,-11212.6,-4402.9,-3684.1,-3406.7,-3888.9
-8682.1,-5218.6,-12429.9,-11212.8,-4402.7,-3683.7,-3407,-3889.9
-8689.3,-5229,-12445,-11225,-4407,-3686.1,-3413,-3896.9
-8699.6,-5239.7,-12465.9,-11235.9,-4413.6,-3690.6,-3422,-3906.7
-8705.7,-5245.7,-12486.6,-11232.2,-4417.6,-3693.2,-3427.8,-3913.9
-8706.1,-5242.8,-12502.6,-11221.9,-4417.7,-3693.1,-3427.1,-3913.7
-8701.1,-5234.7,-12488.3,-11217.3,-4415.4,-3692.4,-3423.3,-3910.4
-8694.4,-5229.9,-12466.2,-11211.8,-4407.9,-3688.9,-3413.8,-3902.6
-8684.7,-5235.5,-12443.5,-11205.9,-4402.5,-3686.5,-3406.6,-3895.5
-8676.5,-5249.1,-12421.7,-11202.7,-4404.3,-3687.5,-3406.9,-3895.6
-8677.4,-5252.6,-12423.9,-11204.5,-4404.9,-3686.4,-3407.8,-3896.5
-8686.9,-5237.6,-12445.9,-11215.1,-4409.8,-3688.2,-3415.1,-3902.6
-8697.1,-5224,-12470.7,-11230.4,-4415.2,-3691.4,-3423,-3911.6
-8701.5,-5221.5,-12480.8,-11241.2,-4418,-3692.4,-3426.7,-3915.8
-8701.2,-5226.2,-12477.8,-11238.9,-4415.6,-3691.6,-3423.5,-3911.9
-8693.7,-5225.8,-12460.5,-11225.7,-4412.4,-3689.4,-3417.4,-3903.7
-8683.2,-5223.6,-12439.4,-11213.3,-4407,-3685.3,-3409.1,-3894.4
-8674.3,-5221.4,-12421.4,-11207.9,-4402.4,-3682.9,-3402.9,-3888.4
-8674.2,-5222.3,-12421.6,-11208.5,-4402,-3683.1,-3404.1,-3890.1
-8683.1,-5228.7,-12436.8,-11213.3,-4405.2,-3684.4,-3409.9,-3896
-8693.4,-5234.5,-12457.1,-11221.7,-4408.5,-3685.8,-3415.5,-3902.1
-8700.9,-5237.8,-12479.7,-11231,-4408.8,-3686.7,-3418.8,-3906.1
-8705.8,-5241.1,-12486.7,-11234.9,-4412,-3688.2,-3422.3,-3909.4
-8700.4,-5241.7,-12474.7,-11228.7,-4410.3,-3686.7,-3418.4,-3905.2
-8691.6,-5241.5,-12456.6,-11219.7,-4405.8,-3683.6,-3411.2,-3897.1
-8682.4,-5235.5,-12437.3,-11211.9,-4399.5,-3680.1,-3403.4,-3889.1
-8677.5,-5232.6,-12428.4,-11207.5,-4399.7,-3678.8,-3401.4,-3886.5
-8681,-5235.1,-12436.3,-11212.7,-4402.2,-3679.5,-3404.9,-3890.1
-8688.4,-5237.8,-12453.7,-11225.4,-4405.6,-3681.1,-3411.2,-3896.3
-8698.1,-5247.4,-12477.5,-11229.8,-4408.4,-3683,-3418.2,-3903.7
-8704.6,-5262.9,-12491.6,-11227.5,-4412,-3685.2,-3423.2,-3909.1
-8704,-5273.2,-12488.4,-11222.8,-4410.9,-3685.4,-3421.4,-3907.1
-8695.8,-5259,-12472.2,-11219.4,-4407,-3683.9,-3415.1,-3900.6
-8686.1,-5236.9,-12451.4,-11216.1,-4400.7,-3681,-3406,-3892.6
-8679.1,-5225.8,-12435.4,-11214.3,-4395.5,-3678.7,-3399.2,-3887
-8677.5,-5224.6,-12432.9,-11218.5,-4397,-3679.5,-3400.6,-3887.4
-8681.6,-5223.1,-12446.7,-11224.8,-4402.8,-3682.4,-3407.8,-3894.3
-8691.8,-5224.2,-12477.2,-11231.2,-4407.8,-3684.6,-3415.3,-3901.1
-8702.6,-5230.3,-12493.2,-11239.4,-4413.8,-3688.1,-3424,-3909.8
-8706.5,-5238.6,-12494.5,-11238.3,-4415,-3689.6,-3425.3,-3911.3
-8699.4,-5243.3,-12476.5,-11231.6,-4412.5,-3689.2,-3420.8,-3906.5
-8687.2,-5243.3,-12445.2,-11227.9,-4408.3,-3688.6,-3413.8,-3901.6
-8675.6,-5237,-12421.6,-11220.1,-4402.8,-3684.5,-3404.9,-3891.2
-8670.4,-5227.9,-12413.9,-11211.6,-4399.9,-3681.1,-3401.3,-3885.6
-8676.2,-5226.9,-12424.6,-11213.9,-4401.2,-3681.7,-3404.3,-3890
-8686.1,-5229.9,-12440.3,-11222.5,-4404.9,-3683.4,-3410.3,-3896.4
-8695.3,-5237.9,-12464.8,-11232.4,-4410.1,-3686.7,-3419.4,-3904.7
-8700.9,-5242.6,-12477.8,-11235.7,-4415.7,-3688.7,-3425.5,-3909.4
-8699.8,-5243.3,-12475.1,-11234.3,-4413.1,-3688.4,-3422.8,-3906.9
-8691.4,-5243.3,-12458.5,-11226.8,-4406.6,-3686.6,-3414.5,-3900.8
-8682.6,-5244.7,-12439.9,-11213,-4401.3,-3683.9,-3406.4,-3892.6
-8675.2,-5239.8,-12425.7,-11203.2,-4398.1,-3681.8,-3400.6,-3886.3
-8673.8,-5237,-12426.4,-11203.3,-4393.6,-3680.3,-3397.2,-3885.9
-8679.9,-5242.4,-12444.5,-11218,-4397,-3682.4,-3402.8,-3891.4
-8688.7,-5242.1,-12464.1,-11230.1,-4406.1,-3686.4,-3413.9,-3901.3
-8698.5,-5246,-12481.7,-11232,-4414.6,-3690.4,-3423.6,-3910
-8702.7,-5255.5,-12489.8,-11232,-4415.4,-3692,-3426.1,-3913
-8698.8,-5255,-12481.2,-11224.9,-4412.4,-3691.2,-3421.6,-3908.9
-8688.2,-5246.7,-12462.3,-11218.4,-4407.8,-3688.2,-3413.4,-3900.9
-8677.5,-5234.6,-12441.2,-11210.5,-4402.5,-3684.6,-3405.2,-3891.9
-8675.2,-5223.1,-12432.7,-11207.8,-4397.8,-3681.7,-3400.6,-3887
-8679.1,-5220.1,-12443.4,-11211.9,-4397.8,-3681.2,-3402.6,-3889.1
-8686.9,-5227,-12460.3,-11217.9,-4406,-3685.4,-3411.7,-3897.6
-8695.9,-5237.4,-12477.3,-11225.1,-4412.8,-3689.9,-3421,-3906.4
-8703.1,-5243.6,-12490.6,-11230.7,-4416.6,-3693.3,-3426.7,-3912.9
-8703,-5237.8,-12490,-11231.1,-4416.1,-3694,-3425.9,-3912.3
-8696.2,-5234.9,-12475.4,-11225,-4411,-3691.7,-3419.1,-3906
-8686.8,-5231.1,-12455.4,-11216.4,-4405.1,-3687.9,-3410.5,-3897.5
-8677.2,-5230.8,-12440.1,-11208.5,-4398.8,-3683.3,-3401.8,-3889
-8676.1,-5237.7,-12450.2,-11205,-4396.4,-3680,-3399.5,-3885.8
-8684.3,-5250.8,-12460.9,-11209.7,-4402.4,-3682.4,-3408.2,-3892.7
-8691.6,-5253.1,-12475.6,-11221.6,-4408.9,-3686,-3417.3,-3901.5
-8699.7,-5243.8,-12489.1,-11233.5,-4414.2,-3689.9,-3425.6,-3911
-8700,-5233.3,-12481.9,-11236,-4415.4,-3692.9,-3427.4,-3916.4
-8693.2,-5223.6,-12467.8,-11232.7,-4410.9,-3689.8,-3419.9,-3907.8
-8684.6,-5221.7,-12452.7,-11228,-4406.3,-3684.7,-3411.2,-3897.2
-8676.6,-5224.2,-12435.4,-11220.4,-4402.5,-3681.5,-3403.6,-3889.9
-8674.4,-5228.5,-12424.4,-11219.5,-4402.1,-3680.6,-3402.5,-3887.2
-8679.6,-5234.1,-12436.4,-11222.3,-4408.2,-3685.2,-3411.4,-3893.3
-8685.3,-5236.2,-12450.5,-11223.5,-4411.5,-3687.8,-3416.4,-3898.9
-8695.1,-5238,-12470.4,-11228.6,-4416.9,-3691.3,-3424.1,-3907.6
-8701.7,-5241.9,-12484.4,-11233.8,-4420,-3694.5,-3429.2,-3914.2
-8700.8,-5245,-12483.6,-11234.6,-4417.8,-3694.3,-3426.6,-3913.2
-8696.7,-5244.4,-12472.8,-11230,-4413.9,-3692.8,-3421.4,-3907.9
-8686.4,-5244.2,-12456,-11220.4,-4410.4,-3689.5,-3414.5,-3899.1
-8678.8,-5242.9,-12443.7,-11209.2,-4406.8,-3684.9,-3407.8,-3889.6
-8679.3,-5245.9,-12444.2,-11208.3,-4408.9,-3685.9,-3410.5,-3892.1
-8684.9,-5246.5,-12455.1,-11218.9,-4413.7,-3688.5,-3417,-3898.8
-8694.3,-5247.3,-12470.6,-11229.5,-4417.5,-3690.9,-3423.8,-3906.4
-8704.1,-5248.8,-12486.9,-11237.3,-4421.1,-3694.3,-3431.1,-3914.4
-8707.2,-5245.1,-12493.2,-11241.5,-4422.6,-3696.4,-3433.4,-3917.6
-8701.6,-5235,-12483.3,-11242.1,-4419.7,-3695.1,-3428.8,-3913.2
-8692.1,-5228.7,-12466.5,-11233.8,-4412.6,-3691.8,-3420.5,-3904.7
-8685,-5227,-12451.1,-11220.5,-4406.8,-3688.1,-3412.9,-3895.6
-8680.5,-5226.4,-12440.3,-11215.4,-4405.5,-3687.7,-3409.8,-3893.3
-8679.9,-5228,-12442.4,-11218,-4408.3,-3689.3,-3413.2,-3898.2
-8688.2,-5235.5,-12457,-11223.3,-4413.1,-3692.2,-3419.7,-3905.5
-8699.5,-5248.8,-12478.4,-11231,-4417.6,-3696.2,-3427.2,-3915
-8705.6,-5256.1,-12495,-11238.6,-4420.3,-3699,-3431.5,-3921.3
-8703.8,-5255.2,-12493.1,-11237.5,-4425.1,-3699.9,-3434.3,-3921.4
-8696.7,-5252.2,-12483.3,-11229,-4422,-3696.9,-3428.5,-3914
-8689.5,-5246.8,-12479.1,-11222.5,-4414.7,-3692,-3418.5,-3904
-8680.4,-5237.9,-12454.9,-11217.8,-4409,-3689.1,-3411.4,-3897.1
-8675.3,-5231.1,-12441.8,-11217.2,-4407.4,-3688.3,-3410.3,-3896.3
-8679.3,-5231.1,-12447.5,-11224.7,-4411.4,-3691.2,-3416.5,-3903.3
-8685.9,-5233.8,-12451.2,-11233.2,-4421.7,-3697,-3427.7,-3913.4
-8695.3,-5241.2,-12466.5,-11238.9,-4426.4,-3699.6,-3434.9,-3919.3
-8701.7,-5250.8,-12481.1,-11241.1,-4426.3,-3700.4,-3436.8,-3922.1
-8699.7,-5259.5,-12477.2,-11235.4,-4421.4,-3697.9,-3430.4,-3917.5
-8695.7,-5269.5,-12462.6,-11225.9,-4416.5,-3693.5,-3422.9,-3909.4
-8686.4,-5266.2,-12450.2,-11217.8,-4410.7,-3691,-3416.2,-3901.5
-8678.3,-5248.1,-12440,-11216,-4408.2,-3689,-3412,-3896.9
-8678.9,-5233.9,-12443.3,-11223.5,-4408.1,-3688.4,-3413.3,-3897.7
-8684.8,-5228.7,-12453.7,-11244.5,-4409.9,-3690,-3416.7,-3902.9
-8694.2,-5235,-12470.5,-11255.3,-4415.9,-3691.8,-3424.3,-3909.5
-8702,-5242.7,-12485.5,-11246,-4419.8,-3693.3,-3429.8,-3915.2
-8704.1,-5252.3,-12489.3,-11229.7,-4420.5,-3693.5,-3429.8,-3913.6
-8700.8,-5255.7,-12482.1,-11218.6,-4417.7,-3691.8,-3425.2,-3906.4
-8692,-5248.3,-12465.4,-11217.7,-4412.1,-3690.4,-3418.8,-3901.4
-8681.2,-5240.5,-12445.9,-11216.5,-4408.6,-3688.5,-3412.6,-3895.5
-8678,-5237.2,-12438.7,-11213.3,-4408.2,-3688.2,-3411.7,-3894.6
-8681.8,-5236.2,-12446.4,-11217.9,-4410.1,-3689.5,-3415.6,-3899.7
-8688.8,-5234.5,-12462,-11228.3,-4413.6,-3691.8,-3421.5,-3906.4
-8700.5,-5236.4,-12482.3,-11236.8,-4421.6,-3695.7,-3430.8,-3914.3
-8707.1,-5245.4,-12496.8,-11240.9,-4425.8,-3697.8,-3435.7,-3918.3
-8705.3,-5252.6,-12495.8,-11236.5,-4420.5,-3695.2,-3430.4,-3913.8
-8696.8,-5252.2,-12479,-11227.6,-4415.2,-3692.4,-3422.9,-3908.1
-8684.2,-5248.1,-12455.6,-11219.9,-4411.3,-3689.3,-3415.1,-3900.3
-8677.1,-5244.3,-12439.8,-11213.9,-4409.9,-3687.2,-3411.5,-3894.7
-8677.5,-5241.2,-12439.3,-11213.8,-4411,-3687.9,-3413.3,-3896.2
-8684.2,-5235.5,-12453.2,-11220.9,-4414.8,-3690,-3419.2,-3902.5
-8693.5,-5232.6,-12472.5,-11231.7,-4420.3,-3693,-3427.3,-3911.4
-8699.8,-5236,-12492.2,-11245.9,-4422.6,-3695,-3431.5,-3917.2
-8700.8,-5246.8,-12509,-11248.3,-4420.5,-3694.3,-3428.5,-3915.5
-8697.5,-5250.9,-12497.8,-11234.2,-4418.5,-3693,-3424.6,-3911.5
-8688.6,-5243.1,-12474.9,-11220.4,-4412,-3688.4,-3415.9,-3903
-8676.7,-5236,-12449,-11211.3,-4406.5,-3685.3,-3408.4,-3895.8
-8667.6,-5233.2,-12425.5,-11208.2,-4405.7,-3685.6,-3407,-3895.8
-8669.8,-5235.5,-12428.6,-11212.4,-4407.5,-3685.9,-3409.7,-3897.3
-8678.9,-5238.2,-12450.5,-11224.8,-4413.6,-3689.1,-3418.1,-3904.1
-8689.9,-5240.6,-12473.5,-11239.2,-4417.9,-3692.4,-3425.5,-3913.2
-8697.1,-5239.3,-12484.9,-11244.7,-4420.3,-3694,-3429.8,-3918.6
-8695.8,-5239.3,-12485.6,-11241,-4418.4,-3694,-3427.4,-3915.9
-8685.6,-5244.2,-12468.7,-11228.5,-4415.5,-3691.5,-3420.8,-3907.2
-8674,-5245.3,-12447.3,-11216.1,-4410.8,-3688.2,-3412.8,-3899.7
-8666.7,-5239.7,-12431.9,-11210.3,-4406.9,-3685.6,-3407.1,-3893.9
-8666.7,-5235.2,-12433.4,-11209.4,-4407.4,-3685.4,-3408.5,-3894.3
-8672.2,-5242.4,-12448.7,-11216.2,-4411.2,-3687.4,-3414.3,-3900.2
-8682.4,-5249.6,-12471.2,-11229.1,-4416.5,-3690.7,-3421.6,-3907.8
-8692.4,-5249.4,-12492.6,-11239,-4421.3,-3692.9,-3428.5,-3913.2
-8696.4,-5245,-12498,-11241,-4421.2,-3693.2,-3430.3,-3915.7
-8692.2,-5241.1,-12485.3,-11232.5,-4417,-3691.7,-3424.4,-3911.4
-8684.8,-5240.2,-12466.6,-11221.6,-4412.9,-3689.7,-3418,-3903.9
-8673.9,-5232.8,-12446,-11211.4,-4407.1,-3686.6,-3410.1,-3895.7
-8670.2,-5228.8,-12437,-11210.1,-4405.4,-3685.9,-3407.3,-3893.6
-8673.8,-5232.3,-12443.3,-11220.1,-4408.6,-3688.4,-3412.2,-3898.7
-8681,-5235.9,-12459.3,-11230.1,-4411.3,-3690.7,-3417.5,-3905.1
-8691.4,-5244,-12482.7,-11238.7,-4415.1,-3693.1,-3424.8,-3913.3
-8700.1,-5255.7,-12499.1,-11244.2,-4420.1,-3695,-3430.5,-3918.5
-8699.9,-5258,-12495.4,-11237.6,-4418.9,-3693.7,-3427.6,-3915.6
-8690.5,-5255,-12475,-11227.2,-4416.3,-3691.2,-3421.4,-3909.3
-8679.6,-5244.6,-12451.2,-11220.3,-4411.1,-3687.4,-3413.1,-3900.6
-8671.7,-5232.5,-12433.3,-11215.8,-4405.2,-3683.7,-3405.5,-3893.3
-8671.7,-5228.7,-12433.9,-11217.2,-4405,-3683,-3405.8,-3893.5
-8680.1,-5236.4,-12454.4,-11222.5,-4408.6,-3684.7,-3411.3,-3899.4
-8688.3,-5244.7,-12483.9,-11227.1,-4411.9,-3686.3,-3416.3,-3904.6
-8698.9,-5257.4,-12501.2,-11237.1,-4419.3,-3690.9,-3426.6,-3914.5
-8701.1,-5269.7,-12501.5,-11240.6,-4420.8,-3693.2,-3428.8,-3917.1
-8694.4,-5265.8,-12485.7,-11237,-4418.3,-3692.3,-3424,-3912.8
-8681.3,-5249.4,-12454.9,-11234.9,-4415,-3691.9,-3417.8,-3907.6
-8671.7,-5233.6,-12433.3,-11232.7,-4406.1,-3687,-3406.2,-3896.4
-8668.7,-5226.6,-12428.7,-11229.5,-4403.1,-3684.5,-3402.7,-3891.2
-8673,-5233,-12439.5,-11227.3,-4408.7,-3685.5,-3408.4,-3895.8
-8681.7,-5237.6,-12455,-11230,-4411.9,-3687.4,-3414,-3902.3
-8693.1,-5239,-12479.9,-11240.3,-4418,-3692.1,-3424.9,-3912.3
-8698.8,-5238.4,-12493.3,-11249.5,-4422.5,-3695,-3430.7,-3918.2
-8696.4,-5240.1,-12490.4,-11249.4,-4418,-3694.8,-3425.7,-3916.3
-8688.1,-5241.2,-12474.1,-11239,-4414,-3693,-3419.5,-3910.3
-8678.2,-5241,-12454,-11226.7,-4414.3,-3691.3,-3416,-3902.5
-8671.3,-5238.9,-12438.6,-11218.6,-4412.4,-3688.6,-3412,-3895.9
-8670.5,-5237.5,-12440.4,-11220.2,-4408.7,-3686.4,-3409.1,-3894.3
-8675,-5243.7,-12456.3,-11228.2,-4410.5,-3686.7,-3411.8,-3896.2
-8685.1,-5260,-12474.2,-11230.3,-4417.4,-3689.9,-3421.2,-3906.6
-8694.6,-5270.4,-12489.6,-11232.4,-4423,-3692.7,-3428.8,-3914.5
-8698.5,-5263.1,-12494.5,-11242.6,-4423,-3693.9,-3430.1,-3916
-8694.1,-5249.8,-12484.2,-11242.3,-4421,-3692.7,-3426.5,-3912.1
-8684.6,-5248.2,-12464.5,-11233.5,-4414.5,-3689.6,-3417.1,-3904.1
-8674,-5246.3,-12444.5,-11221.8,-4410.2,-3687.2,-3409.6,-3896.7
-8669.4,-5243.1,-12436.5,-11216.2,-4405.6,-3685.4,-3405.4,-3893
-8674.6,-5239.9,-12446.5,-11221.9,-4405,-3685,-3407,-3894.8
-8682.1,-5236.4,-12461.1,-11230.9,-4413.5,-3689.1,-3416.5,-3902.9
-8690.8,-5233.8,-12477.8,-11240.1,-4420.7,-3692.9,-3425.7,-3912.1
-8697.3,-5237,-12491.3,-11247,-4424,-3695.6,-3430.5,-3918
-8695.8,-5239,-12489.3,-11247.3,-4422.6,-3694.6,-3427.4,-3915.5
-8687.8,-5235.8,-12474.7,-11239.6,-4417.7,-3691.8,-3420.2,-3908.2
-8679.7,-5234.1,-12458.1,-11230.9,-4411.6,-3688.9,-3412.2,-3900.9
-8671,-5232.8,-12444.2,-11222.4,-4405.8,-3685.2,-3404.2,-3893.1
-8669.7,-5228.8,-12454.7,-11222.5,-4405,-3683.9,-3403.3,-3891.3
-8675.4,-5229.5,-12464.2,-11233.6,-4409,-3686.5,-3410,-3897.8
-8682.9,-5234.8,-12475.4,-11243.3,-4413.7,-3689.9,-3417.5,-3905.7
-8691.6,-5242.2,-12488.3,-11248.6,-4420.5,-3693.9,-3426.9,-3915
-8692.9,-5247.4,-12482.6,-11241.7,-4424.9,-3697.7,-3431.5,-3920.7
-8686.9,-5257.8,-12470.3,-11230.3,-4420.2,-3694.8,-3424.5,-3913.9
-8680.1,-5266,-12456.8,-11215.2,-4414.8,-3691.1,-3416.7,-3905.8
-8671.3,-5261.7,-12436.5,-11202.1,-4411.9,-3687.7,-3410.2,-3897.3
-8667,-5249.6,-12421.8,-11205.1,-4409.4,-3685.5,-3406.8,-3893.4
-8670.6,-5238.9,-12433,-11216.1,-4410.1,-3687.2,-3410.7,-3897
-8677.1,-5236.7,-12452.7,-11228.5,-4416,-3690.4,-3418.3,-3903.7
-8684.3,-5240.6,-12472.4,-11237.5,-4424.3,-3693.8,-3427.9,-3911.9
-8691.8,-5240.9,-12485.9,-11241.8,-4427.5,-3696.2,-3432.6,-3917.4
-8690.6,-5234.2,-12484.1,-11240.2,-4425.7,-3696.6,-3430.5,-3916.4
-8682.7,-5227.7,-12470,-11235.1,-4423.4,-3695.3,-3425.8,-3910.5
-8674,-5225.3,-12453,-11229.5,-4418.2,-3693.3,-3417.8,-3902.1
-8666.5,-5223.6,-12440.7,-11221.8,-4412.5,-3690,-3409.9,-3893.6
-8666.5,-5225.6,-12439.4,-11218.9,-4411.8,-3689.9,-3410.6,-3894.6
-8672.3,-5231.2,-12449.6,-11222.1,-4416.2,-3691.8,-3416.9,-3900.2
-8678.8,-5234.7,-12465,-11231,-4419.1,-3693.6,-3422.8,-3907.2
-8688.5,-5236.7,-12482.5,-11242.3,-4423.4,-3696.5,-3429.9,-3914.8
-8690.8,-5238.9,-12489.4,-11247.3,-4426.2,-3697.4,-3432.8,-3917.6
-8685.8,-5241.1,-12481.6,-11243.5,-4423.2,-3695.6,-3428.4,-3913.8
-8678.7,-5239.8,-12466.9,-11236.4,-4416.5,-3692,-3420.2,-3905.8
-8669.9,-5241.7,-12451.3,-11224.6,-4411.2,-3687.7,-3412.1,-3896.2
-8664.8,-5246.8,-12441.5,-11215.8,-4409.1,-3686.3,-3408.3,-3892.3
-8667.3,-5244.7,-12444.9,-11212.5,-4410.9,-3687.2,-3410.6,-3894.6
-8675.1,-5239,-12458.7,-11216.2,-4414.1,-3689.2,-3416.3,-3900.5
-8686,-5236.4,-12477.2,-11226.9,-4416.1,-3691.4,-3422,-3907.9
-8694,-5236.9,-12491.1,-11237.1,-4419.5,-3693,-3427.5,-3913.1
-8693.3,-5236.5,-12490.4,-11240.7,-4420.1,-3692.1,-3426.9,-3911.5
-8684.3,-5237.1,-12480.7,-11234.6,-4420,-3690.1,-3422.9,-3904.8
-8675.5,-5237.2,-12474.5,-11222.5,-4415.6,-3686.7,-3414.8,-3895.4
-8668.6,-5239.2,-12454.4,-11212.9,-4411.6,-3684.7,-3409.1,-3889.6
-8666.7,-5239.7,-12444.5,-11209.3,-4408.7,-3683.5,-3406.9,-3887.9
-8668.9,-5247.6,-12449.6,-11213.1,-4413.4,-3686.4,-3413.5,-3894.6
-8673.2,-5253.1,-12453.2,-11219.9,-4419,-3691.4,-3421.2,-3905.1
-8681.1,-5245.9,-12467.4,-11230.7,-4423.8,-3693.4,-3428,-3910.6
-8685.9,-5235.1,-12479.8,-11239.3,-4425,-3693.9,-3430.6,-3912.6
-8683.3,-5227.1,-12475,-11239,-4422,-3691.7,-3425.8,-3908.5
-8678.6,-5224.4,-12459.1,-11232.3,-4417.2,-3688.7,-3418.7,-3902.2
-8669.4,-5226,-12444.1,-11221.7,-4412.2,-3686.7,-3412.1,-3895.1
-8660.4,-5226.1,-12429.1,-11214.2,-4409,-3684.4,-3406.5,-3888.8
-8661.1,-5225.8,-12431.2,-11214.5,-4410.7,-3685.4,-3409.6,-3891.4
-8667.1,-5226.6,-12444.1,-11222.2,-4414.3,-3687.6,-3415.4,-3898.4
-8676,-5226.8,-12462.9,-11234.6,-4419.2,-3690,-3422.6,-3905.9
-8683.4,-5229.4,-12479,-11241.1,-4424.3,-3693,-3429,-3912
-8685.8,-5233.1,-12485.4,-11237.9,-4424.4,-3692.8,-3428.1,-3911.1
-8681.1,-5231,-12481,-11225.1,-4420.8,-3690,-3422.1,-3903.2
-8674.5,-5227,-12464.1,-11217.5,-4416.2,-3687.6,-3415.7,-3897.1
-8665.3,-5224.3,-12441.6,-11212.4,-4413.5,-3685.4,-3410.2,-3890.9
-8662,-5224.1,-12434.5,-11210.3,-4411.8,-3685,-3409,-3890.6
-8667.4,-5224.5,-12443.7,-11213.8,-4414.6,-3686.4,-3413.4,-3896
-8675.6,-5225.2,-12460.5,-11222.9,-4419.4,-3689.7,-3420.9,-3904
-8683.3,-5228.8,-12478,-11232.7,-4424.9,-3694,-3429.4,-3912.3
-8689.6,-5233.4,-12488.8,-11235.7,-4425.2,-3694.8,-3432,-3915.1
-8688.3,-5239.3,-12486.2,-11232.4,-4420.1,-3691.9,-3427.2,-3909.8
-8679.1,-5237.6,-12469.8,-11226.9,-4415.1,-3689.4,-3419.3,-3903.3
-8668.3,-5235.4,-12449,-11220.7,-4412,-3686.6,-3411.9,-3896
-8660.8,-5234.3,-12435,-11211.8,-4410.1,-3683.7,-3407.6,-3890
-8663.4,-5232.2,-12436.2,-11210.6,-4412.5,-3684.1,-3410.7,-3891.1
-8668.3,-5230.7,-12448,-11219.8,-4416.2,-3686.1,-3416.1,-3897.1
-8674.8,-5229.7,-12466.6,-11238.3,-4420.8,-3689,-3423.5,-3905.5
-8684.2,-5240.4,-12489.2,-11242.5,-4423.9,-3691.1,-3429.1,-3911.9
-8686.2,-5247,-12505.2,-11233.6,-4422.4,-3690.7,-3427.9,-3911
-8681.3,-5238.8,-12488.6,-11227.3,-4421,-3690.4,-3424.3,-3906.3
-8673.6,-5230.6,-12464.1,-11217.2,-4415.6,-3688.3,-3416.6,-3898.5
-8665,-5219.4,-12440.3,-11210.4,-4411.1,-3686.6,-3410.4,-3892.5
-8657.4,-5212.2,-12420.6,-11213.4,-4411.9,-3687.9,-3410.4,-3893.2
-8661.2,-5210.9,-12428.5,-11219.4,-4412.9,-3686.5,-3412.7,-3894.6
-8669.9,-5216.1,-12451,-11224.6,-4416.5,-3687.6,-3418.7,-3899.9
-8679.8,-5225.7,-12472.3,-11232.5,-4421.9,-3690.3,-3426.4,-3908.1
-8686.7,-5235.6,-12483.4,-11239.7,-4424,-3691.5,-3430.5,-3912.9
-8685.9,-5240.8,-12482.1,-11236.9,-4422.2,-3690.7,-3428.7,-3910.1
-8678.6,-5236.4,-12465.4,-11227.5,-4418.6,-3687.9,-3421.6,-3902.8
-8669.4,-5231.8,-12444.9,-11215.8,-4413.3,-3684.3,-3413.1,-3893.4
-8659.8,-5227.6,-12426.6,-11210.5,-4409.7,-3681.7,-3407.9,-3886.8
-8660.5,-5229.5,-12428.6,-11214.2,-4410.5,-3681.4,-3409.5,-3886.6
-8667.2,-5237.8,-12446,-11222.7,-4415.2,-3683.1,-3416.2,-3892
-8675.6,-5245.9,-12465.8,-11230.6,-4420.3,-3685.8,-3424.2,-3898.7
-8684.8,-5248.7,-12486.3,-11237.7,-4423.4,-3688.4,-3429.2,-3904.1
-8689.2,-5246.7,-12491.9,-11242.6,-4425,-3690.7,-3431.6,-3908.1
-8682.6,-5239.7,-12479.7,-11234.9,-4420.7,-3689.5,-3426.5,-3904.2
-8670.8,-5230.2,-12461.2,-11224.1,-4413.8,-3685.8,-3417.5,-3896.7
-8663,-5228.3,-12442.2,-11219.1,-4407.8,-3682.3,-3409.4,-3889.3
-8658.8,-5231.2,-12433.2,-11212.5,-4403.7,-3680,-3404.6,-3885.7
-8660.6,-5225.6,-12439.8,-11214.3,-4406.2,-3681,-3408.6,-3889.1
-8665.9,-5220,-12456.4,-11223.1,-4410.5,-3683.5,-3415.6,-3895.6
-8675.8,-5220.7,-12479.4,-11234.4,-4414.5,-3685.2,-3422.4,-3902.3
-8683.2,-5223,-12494.7,-11239.5,-4417.9,-3687.9,-3427.4,-3908.2
-8681.3,-5224.2,-12491.7,-11236,-4416.7,-3688.3,-3425.2,-3906.2
-8673.9,-5225,-12474.8,-11226.9,-4414,-3685.8,-3419,-3899.2
-8665.2,-5225.8,-12454.1,-11217.4,-4408.8,-3682.4,-3411.2,-3890.3
-8659.1,-5224.6,-12439.2,-11210.4,-4406.6,-3680.8,-3407.5,-3884.8
-8657.6,-5224,-12437.3,-11208,-4406.8,-3680.4,-3407.9,-3886.6
-8661.9,-5227.5,-12453,-11211,-4408.6,-3681.7,-3411.5,-3891.4
-8672.4,-5232.9,-12486.8,-11218,-4413.9,-3684.3,-3418.5,-3897.9
-8685,-5237.8,-12503.6,-11229.6,-4421,-3689.3,-3428.1,-3907.8
-8685.8,-5238.1,-12500.4,-11235,-4419.5,-3690.1,-3427.7,-3909.8
-8678,-5234.4,-12483,-11230.8,-4416.7,-3688.9,-3423.6,-3906.3
-8665.8,-5229.3,-12451.3,-11224.9,-4414.8,-3688.8,-3418.7,-3901.9
-8655.8,-5226.3,-12427.9,-11226.6,-4405.9,-3683.9,-3407.1,-3891.1
-8652.6,-5227.7,-12421.6,-11223.2,-4402.1,-3680.7,-3402.6,-3886
-8658.3,-5228.7,-12430,-11217.3,-4406.8,-3682.1,-3408.1,-3889.8
-8668.6,-5231.2,-12445.1,-11214.8,-4410.5,-3683.9,-3414.5,-3896.8
-8679,-5234.4,-12470.3,-11226.1,-4417.4,-3689,-3425.5,-3906.9
-8687,-5239,-12485.3,-11234.9,-4421.3,-3691.7,-3430.5,-3911.8
-8685,-5244.1,-12483.5,-11235,-4420.1,-3691.2,-3428.2,-3909.2
-8674.7,-5240.1,-12465.8,-11230,-4416.5,-3689.1,-3421.2,-3902.4
-8665,-5235.9,-12447.1,-11218.5,-4410.4,-3685.2,-3412.7,-3894.8
-8659.1,-5242.9,-12434.4,-11206.9,-4404.5,-3681.5,-3405.7,-3886.9
-8657.7,-5243.2,-12434.9,-11203.6,-4404.7,-3680.3,-3405.7,-3885.5
-8663.1,-5242.1,-12452.1,-11211.5,-4408.2,-3681.5,-3410.1,-3889
-8672.6,-5236.4,-12472.5,-11222.8,-4413.4,-3685.1,-3418.7,-3898.7
-8681,-5229.2,-12487.2,-11236.7,-4417.7,-3688.5,-3425.7,-3907.2
-8683.5,-5229.6,-12490.2,-11242.5,-4418.9,-3689.9,-3427.5,-3910.3
-8679.2,-5227.6,-12479.5,-11238.4,-4415.5,-3689,-3422.8,-3906.2
-8671.5,-5222.6,-12461.8,-11230.4,-4410.2,-3686.3,-3414.9,-3898.8
-8661,-5219.6,-12441,-11219.1,-4405.6,-3683,-3406.3,-3890.5
-8655.3,-5219.5,-12431.8,-11211.5,-4403.4,-3681.9,-3403.3,-3887.1
-8660.3,-5222.2,-12442.1,-11216.4,-4405.2,-3682.9,-3407.8,-3890.8
-8667.9,-5228.5,-12459.7,-11231.4,-4411.8,-3686.3,-3415.8,-3898.6
-8675.9,-5235.2,-12478.5,-11241,-4416.9,-3689.8,-3423.7,-3907
-8681,-5240.3,-12488.3,-11239.7,-4421.1,-3692.7,-3428.8,-3912.1
-8680.6,-5243.5,-12485.2,-11232.8,-4420.3,-3692.9,-3427,-3910.9
-8675.3,-5243.4,-12471.6,-11227.1,-4416.1,-3690.4,-3421,-3904.6
-8666.9,-5237.8,-12455.3,-11222.4,-4409.8,-3687.2,-3412.7,-3897.1
-8657.4,-5233.8,-12441.8,-11213.4,-4405.4,-3683.6,-3405.2,-3888.8
-8657,-5234.2,-12451.2,-11210.7,-4405,-3682.5,-3404.2,-3886.6
-8665,-5236.1,-12460.3,-11223.4,-4412.4,-3686.8,-3413.3,-3895.8
-8672.2,-5235.4,-12471.6,-11233.8,-4417.5,-3690.1,-3421.1,-3904.2
-8682.3,-5240.4,-12485.4,-11239.9,-4422.8,-3694.1,-3429.7,-3913.1
-8682.6,-5245.1,-12478.9,-11240.9,-4426.5,-3697.8,-3434.3,-3918.7
-8676.2,-5243.8,-12464.5,-11233.5,-4422.6,-3695,-3428.2,-3911.1
-8668.5,-5242.3,-12450.8,-11222.7,-4417.3,-3691.4,-3420.3,-3902.2
-8659.9,-5238,-12433.1,-11212.8,-4410.5,-3687.1,-3410.9,-3893.9
-8655.1,-5231.9,-12421.7,-11208.8,-4407.4,-3684.6,-3407,-3889.7
-8660.3,-5231.2,-12435.6,-11215.4,-4412.8,-3686.6,-3413.4,-3892.9
-8669,-5237.8,-12454.9,-11224,-4414.6,-3689.1,-3418.6,-3899.5
-8676,-5241.6,-12471.3,-11230.1,-4416.9,-3690.9,-3424.2,-3907.1
-8681.4,-5241.3,-12481.9,-11237.1,-4424.4,-3694.1,-3431.9,-3913.6
-8680.4,-5242.6,-12479.7,-11244.2,-4424,-3693.8,-3430.1,-3912
-8673.9,-5240.7,-12467.3,-11240.8,-4418.8,-3691.7,-3423.2,-3906.5
-8665.2,-5239.6,-12452.4,-11228.6,-4413.7,-3688.9,-3414.8,-3897.9
-8658,-5235.9,-12440.1,-11214.7,-4408.3,-3685.3,-3407.4,-3889.8
-8656.7,-5229.7,-12435.4,-11211.9,-4406.2,-3684.4,-3406.8,-3890.7
-8660.7,-5227.3,-12443.4,-11217.6,-4409.1,-3686.9,-3412.1,-3897.3
-8667.7,-5233.3,-12459.4,-11224.1,-4414.5,-3690.2,-3420.5,-3905.4
-8677.2,-5242.2,-12478.6,-11231.3,-4419.5,-3692.6,-3427.7,-3913.1
-8680.6,-5253.9,-12487.9,-11234.1,-4421.9,-3693.6,-3430.4,-3915.4
-8677,-5251.3,-12479.2,-11234.8,-4419.2,-3692.3,-3425.8,-3910.9
-8667.2,-5239.1,-12461.7,-11227.1,-4412.9,-3688.4,-3417.2,-3902.4
-8656.9,-5228.2,-12444.5,-11216.8,-4406.2,-3683.6,-3407.6,-3892.1
-8655.1,-5227.1,-12435.4,-11210.6,-4405.1,-3682.4,-3404,-3888
-8655.2,-5230.6,-12437.9,-11209.6,-4406.6,-3683.1,-3406.4,-3890.4
-8660.3,-5233.8,-12451.2,-11216.3,-4409.2,-3685.6,-3411.8,-3896.8
-8670.2,-5233.3,-12470.7,-11226.8,-4413.8,-3688.8,-3419.6,-3904.8
-8677.5,-5230.7,-12485,-11236.6,-4420,-3691.6,-3427,-3910.5
-8675.9,-5236.1,-12482.9,-11236,-4419.2,-3690.8,-3425.7,-3909.2
-8669.6,-5245.6,-12472.5,-11225.2,-4413.7,-3688.1,-3418.3,-3902.2
-8662.7,-5245.5,-12467.8,-11214.2,-4407.1,-3684.7,-3409.9,-3893
-8655.4,-5234.6,-12447,-11213.2,-4403.9,-3683.2,-3404.5,-3888.3
-8651.5,-5223.4,-12436.6,-11217.7,-4403.6,-3682.4,-3403.3,-3886.8
-8655.8,-5219.9,-12444.8,-11223.7,-4408.3,-3685.2,-3410.1,-3893.9
-8658.6,-5219.2,-12446.9,-11229.2,-4413.2,-3689.2,-3417.1,-3902.8
-8667.9,-5224.1,-12461.8,-11238.4,-4416.1,-3690.2,-3421.8,-3907.5
-8675,-5233.1,-12474,-11241.8,-4417.6,-3690.5,-3425,-3909.3
-8672.4,-5237.3,-12466,-11234.8,-4416,-3689.3,-3421.6,-3905
-8666.6,-5239,-12447.5,-11223.4,-4411.2,-3685.8,-3414.3,-3897
-8660.4,-5244.9,-12436.1,-11215.3,-4407.7,-3684.1,-3409,-3890.8
-8655.1,-5242.7,-12426.4,-11212,-4404.1,-3682.7,-3404.2,-3886.6
-8657.2,-5241.1,-12431.9,-11212.5,-4406,-3684.3,-3406.5,-3889.2
-8663.5,-5242.4,-12446.5,-11224.2,-4410.1,-3688,-3413.2,-3897.5
-8672.9,-5243.5,-12464.3,-11235.2,-4417.9,-3692.9,-3423.1,-3907.1
-8680.1,-5243.6,-12479.4,-11238.6,-4424,-3696.7,-3430.6,-3914.4
-8682,-5243.4,-12482.1,-11240.1,-4423.7,-3696.6,-3429.5,-3913.1
-8676,-5240.9,-12473.7,-11237.7,-4419.4,-3693.8,-3423,-3905.6
-8668.7,-5239.4,-12456.3,-11227.7,-4412.8,-3690.7,-3415.4,-3899.7
-8659.8,-5234.6,-12436.6,-11216.7,-4406.5,-3687.4,-3406.9,-3892.7
-8658.6,-5229.8,-12430.2,-11213.8,-4404,-3686.3,-3404.8,-3891.2
-8663.6,-5229.5,-12438.7,-11218.3,-4407.4,-3687.5,-3410.6,-3895.4
-8670.1,-5236.1,-12454.6,-11222,-4414.1,-3690.1,-3419.1,-3902.4
-8679.2,-5250.6,-12473.9,-11229.5,-4418,-3691.9,-3425.1,-3909.6
-8685.3,-5258.8,-12486.4,-11238.6,-4419.3,-3693.3,-3427.8,-3912.9
-8683.8,-5250.3,-12485,-11238.4,-4419.2,-3692.2,-3425.8,-3909
-8677.3,-5239.2,-12472.5,-11231.2,-4415.8,-3689.6,-3418.8,-3902.1
-8665.6,-5230.7,-12450.9,-11220.5,-4409.2,-3686.3,-3409.3,-3893.9
-8659.7,-5225.2,-12435.5,-11213.8,-4404.8,-3683.9,-3403.4,-3888.1
-8661.3,-5224.4,-12434.7,-11214.5,-4404.4,-3683.3,-3403.8,-3888.1
-8667.4,-5229,-12446.8,-11218.5,-4407.4,-3684.7,-3409.4,-3892.2
-8676,-5236.1,-12465.3,-11224.8,-4412.3,-3688.2,-3417.7,-3900.9
-8684.4,-5241.4,-12487.2,-11230.8,-4415.9,-3690.1,-3423.2,-3907.9
-8687.2,-5245.4,-12504.9,-11235.7,-4414.7,-3690.3,-3422.8,-3907.6
-8683,-5245.4,-12489.9,-11237.7,-4411.9,-3689.7,-3417.4,-3903.5
-8673.4,-5240.3,-12465.1,-11226.6,-4410.1,-3687.3,-3410.9,-3895.7
-8663,-5236.6,-12441.7,-11217.4,-4405.9,-3685.3,-3404.3,-3890.3
-8656.1,-5235.3,-12419.6,-11217.2,-4403.7,-3685,-3401.7,-3889.9
-8658.9,-5235.2,-12425.3,-11220.6,-4404.6,-3683.9,-3403.9,-3890.7
-8668.9,-5239.6,-12447.6,-11225.1,-4406.1,-3684.7,-3408.2,-3896.1
-8678.4,-5243.8,-12467.6,-11228.7,-4412.2,-3687.4,-3415.9,-3904.4
-8683.8,-5250.6,-12476,-11231.2,-4417.4,-3689.3,-3421.8,-3909.5
-8682.6,-5249.2,-12476.2,-11232.8,-4414.9,-3689.9,-3420.2,-3908.2
-8673.8,-5236.9,-12461.2,-11228.3,-4412.4,-3688,-3414.3,-3901.2
-8663.5,-5230.5,-12442,-11222,-4406.3,-3684.1,-3405.7,-3892.5
-8656.8,-5230.5,-12427.5,-11217.1,-4403.3,-3681.8,-3401,-3887.1
-8657.5,-5231.9,-12428.1,-11214.8,-4406.8,-3682.1,-3404.5,-3887.5
-8663.6,-5233.1,-12440.8,-11220.9,-4413.4,-3684.5,-3412.1,-3893.3
-8672.3,-5233.3,-12462.2,-11236.1,-4417.9,-3687.5,-3418.9,-3900.9
-8681.1,-5240.1,-12484.1,-11246,-4419.6,-3689.1,-3422.8,-3905.8
-8684.5,-5243.8,-12489.3,-11244.2,-4421.3,-3691.2,-3426.2,-3909.3
-8679,-5241.6,-12477.4,-11235.2,-4416.7,-3689.6,-3420.3,-3904.4
-8670.8,-5237.4,-12458.6,-11226.5,-4411,-3687,-3412.1,-3896.8
-8662.6,-5233,-12438.1,-11217.6,-4407.6,-3684.6,-3406.1,-3888.9
-8657.6,-5234.2,-12427.7,-11212.8,-4407.6,-3683.5,-3404.2,-3885.9
-8661.4,-5241.8,-12434.6,-11214.1,-4408.4,-3683.9,-3406.5,-3889.6
-8669.7,-5247.7,-12451.8,-11218.3,-4410.9,-3685.4,-3412.2,-3896
-8680.6,-5249.2,-12474.6,-11234,-4417.3,-3688.2,-3422,-3903.7
-8687.7,-5250.1,-12488.1,-11247.6,-4421.7,-3691.1,-3427.4,-3909.8
-8685.1,-5255,-12483.3,-11245.7,-4419.5,-3690.4,-3423.9,-3908.1
-8676.6,-5259.8,-12466.4,-11232,-4412,-3687.3,-3414.5,-3901.2
-8667.8,-5252.5,-12446.5,-11217.4,-4405.4,-3683.8,-3405.3,-3892.5
-8661.5,-5240.6,-12431.7,-11208.8,-4402.5,-3681.2,-3400.3,-3886.5
-8658.7,-5237.8,-12432.7,-11210.3,-4401.2,-3680,-3399.8,-3887.2
-8664.6,-5240.3,-12449.7,-11219.7,-4403.9,-3681.6,-3404.4,-3892.4
-8673.9,-5238.1,-12480.9,-11230.6,-4412,-3685,-3413,-3899.2
-8683,-5235,-12496.1,-11241.4,-4421.2,-3690.3,-3423.8,-3909.3
-8686.1,-5234.5,-12498.4,-11244.4,-4421.4,-3691.9,-3424.8,-3911.2
-8680.7,-5234.8,-12481.2,-11240,-4417.8,-3691.3,-3419.5,-3906.9
-8669.3,-5234.1,-12450.1,-11230.3,-4414.7,-3691,-3413.3,-3901.9
-8657.9,-5235.3,-12430.1,-11219.6,-4408.9,-3686.5,-3404.6,-3891.9
-8654.8,-5234.5,-12425.9,-11215.8,-4407.5,-3684.5,-3403.1,-3888.2
-8661.3,-5233,-12433.4,-11218.5,-4410.4,-3685.1,-3406.9,-3892.4
-8671.9,-5232.7,-12445.4,-11222.7,-4414.9,-3686.6,-3413,-3898.9
-8682,-5238.5,-12469.4,-11231.6,-4421.1,-3691.6,-3423.4,-3908.7
-8687.3,-5242.1,-12482.1,-11235.5,-4424.3,-3694.2,-3428.2,-3913.8
-8686,-5243.2,-12479.3,-11234.3,-4422.6,-3693.5,-3426.1,-3911.5
-8678.8,-5241.3,-12464.5,-11229.2,-4418.9,-3691.5,-3420,-3905.5
-8669.7,-5240.1,-12446.5,-11222.8,-4412.7,-3688.2,-3411.2,-3896.4
-8660.2,-5240.1,-12430.8,-11213.2,-4406.7,-3685.1,-3403.2,-3889.2
-8658,-5242.2,-12430.1,-11211,-4405.5,-3684.3,-3402.5,-3888.1
-8665.8,-5241.2,-12448.3,-11221.2,-4412.8,-3685.6,-3410.6,-3892.3
-8677.7,-5237.9,-12470,-11231.9,-4420.6,-3688.2,-3421.3,-3901.5
-8686.8,-5238.6,-12486.6,-11239,-4423.2,-3691.3,-3427.3,-3909.7
-8688,-5241.2,-12491.3,-11240.5,-4423.6,-3693.2,-3428.9,-3911.5
-8682.8,-5247.5,-12481.8,-11234.9,-4421.6,-3693,-3425.4,-3909
-8673.1,-5253.2,-12464.1,-11224.6,-4417.3,-3691.7,-3418.2,-3903.5
-8664.6,-5246.8,-12445.1,-11214.6,-4410.6,-3688.5,-3408.9,-3895.1
-8661.4,-5242.3,-12435.9,-11211.1,-4406.3,-3687.7,-3405.9,-3891.8
-8663.9,-5239.9,-12444.7,-11215.5,-4409,-3689.2,-3410.2,-3895
-8670.9,-5239.6,-12459.4,-11226.4,-4418.8,-3692.7,-3419.7,-3903.2
-8680.6,-5238.3,-12479.7,-11235.1,-4421.1,-3695.3,-3425.9,-3912
-8687.9,-5235.2,-12493.1,-11240.1,-4425.2,-3697.2,-3430.8,-3916.6
-8686.7,-5234.1,-12488.1,-11241.2,-4425.1,-3696.1,-3429.5,-3914.4
-8682.7,-5238.9,-12476.3,-11233.7,-4420.8,-3693.7,-3423.7,-3909.1
-8676.2,-5241.3,-12458.4,-11219.5,-4416.5,-3691.1,-3416.2,-3901.6
-8668.7,-5237.6,-12448.3,-11213.5,-4412.3,-3687.9,-3409.4,-3894.2
-8667.5,-5234.3,-12458,-11211.3,-4410.4,-3686.1,-3407,-3891.8
-8675.1,-5233.4,-12468.4,-11223,-4414.9,-3688.8,-3413.7,-3899.6
-8682,-5232.8,-12478.8,-11238.8,-4418.2,-3690.8,-3419.3,-3906.6
-8690.4,-5235.9,-12491.6,-11249.3,-4424.9,-3694.5,-3427.9,-3915.5
-8690.5,-5239.7,-12484.7,-11246,-4429.1,-3698.1,-3432.2,-3920.9
-8683.8,-5239.7,-12469.7,-11233.7,-4423.3,-3694.5,-3424.4,-3912.9
-8677.9,-5240.5,-12456.7,-11222.7,-4416.1,-3691,-3415.1,-3903.7
-8670.4,-5241.7,-12438.9,-11212.6,-4410.4,-3687.5,-3406.8,-3895.7
-8664.9,-5237.6,-12425.6,-11210.2,-4410.6,-3685.3,-3404.6,-3891.6
-8669.4,-5237.8,-12437.8,-11213.2,-4413.5,-3686.8,-3410.2,-3895.2
-8677,-5240.4,-12455.6,-11218.6,-4416.2,-3689.1,-3415.8,-3902
-8686.3,-5244,-12475.6,-11227.3,-4421.1,-3692.3,-3423.8,-3909.9
-8692.9,-5247.2,-12489.1,-11235.2,-4424.2,-3695,-3429.4,-3916
-8691.2,-5245.7,-12486.9,-11234.3,-4423.2,-3695.4,-3428.2,-3914.5
-8685.1,-5241.9,-12473.8,-11229.6,-4418.4,-3693.1,-3421.1,-3908.2
-8675,-5237,-12454.4,-11225.1,-4412.5,-3688.6,-3411.4,-3898.1
-8666.5,-5235.3,-12442.3,-11219.9,-4406.9,-3684.2,-3403.9,-3888.8
-8666.6,-5235.9,-12442.3,-11216.4,-4408.6,-3684.3,-3406.4,-3889.9
-8671.2,-5239.9,-12451.9,-11218,-4411.8,-3685.7,-3411.3,-3895.1
-8679.8,-5245.7,-12469,-11224.3,-4416.8,-3687.8,-3418.7,-3902.7
-8688.6,-5248.5,-12487,-11231.9,-4421,-3690.6,-3426,-3910.8
-8694.3,-5250.9,-12498.9,-11235.8,-4421.1,-3691.6,-3427.1,-3914.2
-8692.5,-5250,-12495.7,-11226.4,-4419.6,-3691.1,-3423.6,-3910.8
-8684.7,-5243.1,-12477,-11218.6,-4415.8,-3688.8,-3417.3,-3902.5
-8676.8,-5235.5,-12457.4,-11219.8,-4408.6,-3685.1,-3408.7,-3894.4
-8671.6,-5227.1,-12445,-11223.7,-4404.5,-3683.9,-3403.9,-3891.6
-8673.3,-5224.1,-12447.9,-11221.9,-4406.4,-3686.1,-3406.8,-3896.1
-8679.4,-5228.9,-12462.1,-11224.2,-4414.3,-3690,-3415.2,-3903.8
-8688.5,-5235.4,-12480.9,-11230.8,-4417.8,-3692.2,-3421.1,-3910.9
-8696.3,-5240.4,-12495.4,-11236.3,-4424.8,-3695,-3429.3,-3916.9
-8695.5,-5244.4,-12494.8,-11234.6,-4430.8,-3697.3,-3433.8,-3917.8
-8688.7,-5246.7,-12486.9,-11222,-4426.2,-3694.6,-3427.2,-3911.2
-8678.3,-5240.1,-12481,-11209.4,-4418.2,-3689.9,-3416.8,-3900.6
-8670.6,-5232.3,-12458.2,-11204.1,-4411.4,-3686.8,-3408.1,-3893.4
-8667.1,-5228.7,-12447.8,-11207.7,-4409.9,-3685.9,-3407,-3892.9
-8672.4,-5230.9,-12456,-11217.2,-4415.1,-3689,-3414.3,-3899.6
-8678.1,-5232.9,-12458.7,-11224.1,-4421.5,-3693.7,-3422.4,-3909.2
-8686.8,-5238.3,-12472.5,-11231.5,-4424.6,-3695.3,-3426.9,-3914.4
-8690.5,-5246.7,-12485.4,-11235.6,-4426,-3695.4,-3428.8,-3916
-8687,-5249.9,-12479.7,-11232.3,-4423.2,-3693.1,-3423.9,-3911.5
-8680.6,-5247.2,-12460.8,-11222,-4416.4,-3688.8,-3415,-3903
-8672.3,-5243.7,-12446.9,-11214,-4409.7,-3685.8,-3407.9,-3895.2
-8667.5,-5242,-12437.2,-11210.7,-4405.8,-3683.2,-3402.9,-3889.7
-8670.1,-5243.7,-12439.8,-11208.2,-4407.1,-3683.5,-3404.8,-3891.6
-8678.9,-5250,-12454.7,-11212.8,-4409.7,-3685.4,-3410.4,-3898.1
-8689.9,-5247,-12479.7,-11228,-4414.1,-3688.7,-3418.1,-3906.7
-8698.1,-5242.2,-12498.6,-11246.2,-4420.6,-3692.1,-3425.9,-3913.7
-8696.8,-5239,-12498.7,-11248.6,-4420.5,-3691.7,-3424.2,-3911.9
-8690,-5241.8,-12486,-11235.7,-4414.3,-3688,-3415.9,-3903.2
-8683,-5244.8,-12466.2,-11223.2,-4409.5,-3685.8,-3410.6,-3897.4
-8673.7,-5239.8,-12445.5,-11213.4,-4404.6,-3683.2,-3404.5,-3891.3
-8670.2,-5234.3,-12438.4,-11212.3,-4402.6,-3681.9,-3402.5,-3890.1
-8676.4,-5237.4,-12447.9,-11218.5,-4403.3,-3683.3,-3405.6,-3894.4
-8683.7,-5244.1,-12465.1,-11226.6,-4408.7,-3686.3,-3413.5,-3902.4
-8692.3,-5247.7,-12485,-11234.7,-4418.1,-3690.1,-3424.6,-3911.1
-8697.5,-5250,-12496.6,-11239.3,-4423,-3693.2,-3430.5,-3915.5
-8695.4,-5246.7,-12493.9,-11232.2,-4419.3,-3691.8,-3426.4,-3911.9
-8687.3,-5241.1,-12476.9,-11224.3,-4416.5,-3690.6,-3420.9,-3906.3
-8676.8,-5234.9,-12454.2,-11217.7,-4411.7,-3687.8,-3412.7,-3898.2
-8669.2,-5230.1,-12437.8,-11212.7,-4407.8,-3685,-3406.8,-3891.6
-8669.9,-5230.8,-12440.9,-11212.2,-4409.4,-3684.6,-3409.3,-3894.7
-8678.3,-5232.1,-12455.7,-11212.9,-4413.1,-3686.1,-3415.4,-3900.4
-8685.3,-5234.2,-12473.5,-11218.3,-4416.1,-3688,-3422.2,-3907.5
-8692.3,-5239.7,-12491.7,-11221.9,-4416.3,-3688.5,-3424.7,-3911.3
-8693.6,-5243.2,-12504,-11219.9,-4415,-3688,-3422.2,-3909
-8690.7,-5242.9,-12490.9,-11219.6,-4413.4,-3687.7,-3419.3,-3905.8
-8680.8,-5238.1,-12467,-11214.7,-4407.9,-3685.2,-3412,-3898.4
-8669.4,-5232.3,-12442.8,-11209.9,-4403.6,-3682.6,-3405.5,-3891.7
-8663.8,-5233.6,-12423.4,-11210.1,-4406.7,-3684.7,-3406.8,-3893.9
-8668.5,-5239,-12429.3,-11208.8,-4409.6,-3685.9,-3409.9,-3897.4
-8678.5,-5243.5,-12452.1,-11213.6,-4414.3,-3687.8,-3416.9,-3902.8
-8688.8,-5245.6,-12472.6,-11224.3,-4418.4,-3690.1,-3424.2,-3910.4
-8695.4,-5245.8,-12481.8,-11230.9,-4418.8,-3690.5,-3426.5,-3914.2
-8694.5,-5243.8,-12483.3,-11229.2,-4416.3,-3691,-3424.2,-3912.5
-8685.8,-5236.8,-12469,-11221.2,-4413.3,-3689.2,-3418.4,-3906.3
-8675.6,-5232.7,-12447,-11213.7,-4406.9,-3685.7,-3408.8,-3896.9
-8669.1,-5232.4,-12430.6,-11210.4,-4404.3,-3683.2,-3403.5,-3891.1
-8669.5,-5230.1,-12430.9,-11212.4,-4405.5,-3683.1,-3404.8,-3891.9
-8675.6,-5230.3,-12445.8,-11216.7,-4410.8,-3685.5,-3411.7,-3898.6
-8683.6,-5232.2,-12466,-11225.5,-4416.5,-3688.2,-3419.6,-3906
-8693.5,-5235,-12487.6,-11233.5,-4419.2,-3689.9,-3425.3,-3910.8
-8699.4,-5240.9,-12494.5,-11234.8,-4418.5,-3691.2,-3427.1,-3913.9
-8694.1,-5245.3,-12482.5,-11228.3,-4412.7,-3689.5,-3420.5,-3909.5
-8683.1,-5241.6,-12463.2,-11222.7,-4408.9,-3686,-3413.4,-3900.9
-8674.1,-5235.1,-12443.8,-11219,-4408,-3683,-3407.9,-3893
-8670.8,-5232.9,-12436,-11215.1,-4407.1,-3681.5,-3405.5,-3889.7
-8676,-5233.6,-12445.1,-11214.6,-4408.2,-3682.9,-3409.1,-3893.4
-8684.8,-5235.9,-12464.9,-11216.7,-4411.7,-3685.1,-3416,-3899.8
-8694.5,-5241.4,-12488,-11224.4,-4415.1,-3687.1,-3422.8,-3906.1
-8701.7,-5246,-12501.7,-11230.4,-4420.4,-3689.5,-3428,-3911.5
-8700.6,-5249.2,-12498.4,-11233.4,-4421.5,-3689.5,-3426.8,-3909.6
-8691.7,-5245.2,-12483,-11229,-4415.2,-3686.6,-3418.5,-3902.2
-8679.6,-5238.4,-12461,-11215.8,-4408.2,-3682.5,-3408.4,-3892
-8674.5,-5239.8,-12449.2,-11204.6,-4406,-3680.1,-3404,-3887.1
-8676.9,-5241,-12450.9,-11202,-4406.5,-3680,-3405.4,-3888.7
-8680.4,-5243.2,-12463.8,-11207.5,-4409,-3681.7,-3409.3,-3894.6
-8688.9,-5243.1,-12492.5,-11216.3,-4412.9,-3683.5,-3415.2,-3900.3
-8698.5,-5242.7,-12506.9,-11227.7,-4421.2,-3688.7,-3425.8,-3910.6
-8701.8,-5248.9,-12506.6,-11229.6,-4421.4,-3688.9,-3426.4,-3912
-8696.8,-5251.9,-12490.6,-11223.8,-4417.2,-3686.8,-3420.4,-3907.8
-8684,-5247.7,-12458.8,-11218,-4413.8,-3686.2,-3414,-3903.2
-8673.7,-5242.1,-12437.2,-11210.3,-4407.1,-3681.1,-3403.4,-3891.5
-8671.4,-5236.4,-12432.6,-11208.5,-4407,-3678.9,-3401.7,-3886.8
-8676.6,-5233.9,-12441.5,-11217.1,-4408.4,-3679,-3404.6,-3890.1
-8685.3,-5232,-12455.8,-11227.2,-4411.9,-3680.5,-3410.9,-3896.6
-8694,-5235.9,-12478.8,-11234.1,-4417.8,-3684.7,-3420.7,-3905.4
-8700.4,-5241,-12493,-11235.6,-4421.2,-3686.8,-3425.2,-3910
-8697.8,-5241.8,-12491,-11230.4,-4419.4,-3686.1,-3422.3,-3907
-8688.4,-5239.4,-12472.9,-11223.2,-4415,-3684.4,-3416.3,-3900.8
-8677,-5239.6,-12450.6,-11214.4,-4408.5,-3681.8,-3407.9,-3892.2
-8669.9,-5238.8,-12436.4,-11209.9,-4405.4,-3679.3,-3402.7,-3886.1
-8669.6,-5231,-12437.1,-11207.5,-4405.2,-3678.1,-3402.3,-3885.2
-8675.9,-5225.5,-12452.6,-11208.6,-4407,-3678.3,-3406.1,-3888.8
-8688.3,-5231.4,-12473.2,-11216.3,-4410.3,-3680.9,-3414,-3898.7
-8697.7,-5243.6,-12490.2,-11225.7,-4415,-3683.9,-3421.2,-3906.9
-8700.2,-5247.4,-12495.4,-11239.1,-4417.3,-3685.5,-3424.1,-3909.2
-8694.4,-5245,-12487,-11237.1,-4415.8,-3684.8,-3420.8,-3905.1
-8685.4,-5239.3,-12471.4,-11219.7,-4411.2,-3682.4,-3413.1,-3897.2
-8677,-5234.1,-12451.4,-11202.8,-4404.5,-3678.8,-3403.6,-3888.7
-8672.8,-5234.8,-12440.7,-11196,-4398.2,-3676.4,-3397.4,-3884.2
-8675.8,-5236.2,-12448.6,-11198.8,-4400.5,-3677.2,-3401.7,-3887.2
-8682.1,-5235.3,-12464.4,-11209.5,-4408.9,-3681.2,-3411.2,-3895.5
-8690.4,-5240.1,-12482.6,-11220.1,-4414,-3684.7,-3419.1,-3904
-8697.3,-5248.9,-12495.6,-11223.9,-4418.6,-3687.9,-3425.6,-3909.9
-8696.2,-5256.6,-12493.9,-11220.1,-4418.7,-3689.1,-3425.1,-3908.9
-8689.1,-5260.4,-12479.7,-11214.1,-4412.4,-3687.2,-3417.4,-3903.5
-8682.6,-5249.5,-12463.7,-11213.7,-4406.3,-3684,-3408.4,-3895.6
-8675.8,-5235,-12452.1,-11209,-4405.4,-3681,-3403.1,-3887.5
-8672.1,-5224.9,-12459.6,-11209.1,-4407.1,-3679.3,-3403.3,-3884.9
-8678.4,-5227.8,-12466.8,-11220.2,-4411.8,-3681.9,-3410.4,-3893.7
-8688.5,-5232.2,-12480.1,-11227.1,-4415.8,-3684.9,-3417.5,-3901.6
-8698.8,-5238,-12494.6,-11235.2,-4420.8,-3688.8,-3425.3,-3910.3
-8700,-5242.1,-12490.1,-11238.7,-4424.2,-3692.8,-3428.8,-3915.1
-8693.4,-5241.2,-12475.3,-11228.8,-4419.5,-3689.8,-3421.5,-3906.6
-8685.8,-5239.1,-12460.6,-11217.7,-4414.2,-3685.5,-3413.9,-3896.9
-8676.6,-5237.5,-12443.2,-11211.6,-4409.1,-3681.4,-3406.6,-3889
-8671.5,-5235.1,-12431.8,-11206.9,-4404.9,-3678.2,-3402,-3884.6
-8676.8,-5236.3,-12446.8,-11210.1,-4409.2,-3680.8,-3409.5,-3890
-8683.9,-5239.9,-12460.8,-11215,-4412.1,-3682.9,-3414.7,-3894.9
-8695,-5256.1,-12480.2,-11223.3,-4416.9,-3686.1,-3422.6,-3903.8
-8700.8,-5266.9,-12492,-11237.3,-4421.9,-3689.4,-3429.7,-3910.3
-8699.3,-5260.7,-12489.4,-11238,-4420.6,-3689.4,-3428,-3907.9
-8692.5,-5250.6,-12476.4,-11226.9,-4416.2,-3686.5,-3420.8,-3900.1
-8683.6,-5241.7,-12459,-11215.1,-4408.8,-3682.3,-3410.5,-3890.1
-8675.8,-5234.3,-12447.1,-11209.7,-4404.1,-3678,-3403.2,-3881.4
-8674.9,-5229.5,-12445.5,-11215.3,-4403.1,-3677.3,-3403.3,-3883.1
-8679.6,-5227.1,-12454.8,-11222.5,-4406.3,-3679.2,-3408.1,-3888.5
-8687.5,-5231.5,-12472.2,-11228,-4411.8,-3681.7,-3415.8,-3895.7
-8697.5,-5245.8,-12492,-11230.3,-4416.1,-3684.8,-3423,-3904
-8701.3,-5255.5,-12499.2,-11228.5,-4419.2,-3687.6,-3425.9,-3908
-8697.4,-5253.1,-12489.4,-11227.3,-4420.1,-3687.9,-3424.4,-3904.7
-8689.1,-5246,-12472.6,-11224.5,-4415.3,-3685.8,-3417.2,-3897.3
-8680.8,-5239.2,-12456.9,-11217.8,-4409.4,-3683.1,-3409.4,-3889.3
-8676.3,-5234.8,-12448.6,-11215,-4407.6,-3682.1,-3405.4,-3886.7
-8678.7,-5231.7,-12453.5,-11218.7,-4409.6,-3683.6,-3408.1,-3890.1
-8683.3,-5233.4,-12465.7,-11225.7,-4411.9,-3685.7,-3413.4,-3896.2
-8691.5,-5238,-12483.5,-11233.8,-4416.8,-3688.8,-3421.6,-3904.5
-8698.9,-5240.8,-12496.2,-11237.9,-4420.2,-3691.1,-3427,-3909.6
-8700,-5243.2,-12495,-11235.3,-4418.1,-3689.6,-3424.5,-3907.8
-8693.2,-5244.2,-12486.4,-11226.3,-4419.2,-3687.8,-3421.9,-3901.2
-8683.9,-5242.1,-12481.7,-11217.7,-4413.9,-3684.6,-3413.8,-3892
-8676.7,-5235.5,-12462.7,-11215.7,-4407.8,-3683.1,-3407.4,-3887.6
-8676,-5231.6,-12453.7,-11212.7,-4409.3,-3683,-3408.1,-3887.1
-8678.8,-5236.2,-12456.6,-11212.5,-4412.1,-3684.8,-3412.8,-3892.4
-8682.8,-5244,-12459.1,-11218.9,-4417.3,-3689.5,-3420.7,-3902.1
-8689.8,-5253.9,-12473.4,-11229.8,-4419,-3689.6,-3424.4,-3906.5
-8694.4,-5258.4,-12485.8,-11236.1,-4419.9,-3689.7,-3426.1,-3908.8
-8691.8,-5255,-12479.3,-11230.3,-4418.8,-3687.8,-3422.4,-3903.5
-8684.3,-5246.9,-12461.3,-11220.3,-4415.6,-3684.9,-3416.5,-3896.5
-8676.4,-5238,-12447.7,-11214.1,-4409.7,-3683.1,-3409.9,-3890.1
-8669.4,-5231.6,-12435.7,-11210.9,-4406.7,-3681.3,-3405.6,-3885.9
-8670.7,-5229.2,-12438.4,-11210.7,-4408.1,-3682.1,-3408.3,-3888.4
-8677.9,-5230.8,-12450.8,-11219.4,-4412,-3684.9,-3414.5,-3895.1
-8688.1,-5235.1,-12470.9,-11234.3,-4417.5,-3687.7,-3422.9,-3903.1
-8697.7,-5239.3,-12487,-11242,-4421.6,-3689.9,-3428.7,-3908.6
-8697.6,-5245.5,-12489.7,-11237.1,-4420.6,-3689.3,-3427,-3907
-8691,-5246.2,-12482.2,-11226,-4414.9,-3685.4,-3419.5,-3899.3
-8683.7,-5244,-12466.7,-11217.5,-4411,-3682.3,-3413.6,-3893.3
-8675.1,-5242.1,-12447.4,-11209.1,-4405.3,-3679.1,-3405.5,-3886.5
-8672.8,-5240.7,-12439.7,-11207.4,-4403.8,-3678.1,-3403.6,-3885
-8679.7,-5249.6,-12449.4,-11218.4,-4409.5,-3680.1,-3410.6,-3890.1
-8687.7,-5253.6,-12467.4,-11230.4,-4415.3,-3683.3,-3418.8,-3898.5
-8696.4,-5247,-12484,-11237.2,-4421.1,-3687,-3426.4,-3907.1
-8700.7,-5240.5,-12492.8,-11240.1,-4420.7,-3687.7,-3428.1,-3909.9
-8698,-5240.8,-12488.8,-11238.6,-4415.8,-3685.9,-3423.1,-3905.2
-8691.9,-5242.5,-12476.1,-11228.7,-4413.6,-3684.3,-3417.9,-3899.3
-8682.7,-5238.3,-12456.5,-11214.8,-4409.1,-3681.3,-3410.4,-3891.4
-8675.7,-5231.6,-12439.9,-11207.8,-4405.8,-3678.6,-3405,-3886.2
-8675.9,-5230.5,-12438.5,-11211,-4406,-3679.1,-3406.1,-3887.4
-8680.1,-5234.5,-12449.4,-11216.3,-4408.9,-3680.7,-3411.3,-3892.8
-8687,-5239.4,-12467.3,-11225,-4412.7,-3682.1,-3417.6,-3899.8
-8694.3,-5239,-12488.2,-11230.8,-4416.1,-3684.4,-3423.3,-3905.7
-8696.5,-5239.9,-12505.6,-11231.7,-4418.3,-3685.2,-3424.5,-3906.7
-8694,-5242.7,-12492.8,-11229.6,-4420.7,-3685.6,-3424.1,-3904.5
-8684.4,-5240.9,-12468.3,-11222,-4415.3,-3683,-3416,-3895.8
-8674.7,-5234.9,-12445,-11213.4,-4409.3,-3680.7,-3408.3,-3889.4
-8666.7,-5230.7,-12424.5,-11210.1,-4412.1,-3683.7,-3410,-3891.2
-8672.6,-5238.6,-12431.9,-11212.6,-4412.6,-3683.4,-3412,-3893.8
-8684.7,-5248.9,-12453.3,-11221.2,-4413.6,-3684.9,-3415.8,-3901.1
-8693.9,-5252.8,-12472.5,-11232.7,-4421.4,-3688.6,-3425.1,-3909.3
-8699.1,-5255.8,-12484,-11239.6,-4427.7,-3690.4,-3431.9,-3913.5
-8698.1,-5263.2,-12485.9,-11236.7,-4425.1,-3691,-3429.6,-3912.5
-8689.7,-5257,-12471.5,-11229.4,-4420.4,-3689.1,-3422.3,-3906.1
-8678.8,-5247.7,-12449.9,-11225.1,-4416.3,-3686.1,-3415.1,-3897.1
-8673.4,-5249.3,-12435.5,-11217.2,-4411.5,-3683.4,-3409.2,-3892
-8675.7,-5249.9,-12439.2,-11211.9,-4411.8,-3683.5,-3410.2,-3893.5
-8681.1,-5245.5,-12452.4,-11216.9,-4419,-3687,-3418.1,-3900.1
-8690.7,-5241.8,-12473.8,-11228.3,-4424.1,-3690.7,-3425.4,-3908.6
-8701,-5241.7,-12498.2,-11239.7,-4427.3,-3692.9,-3431.1,-3914.1
-8703.8,-5240,-12502,-11242.4,-4427.6,-3693.5,-3432.6,-3916.2
-8697,-5236.4,-12486.7,-11237.8,-4424,-3691.6,-3426.9,-3910.7
-8688.1,-5234.8,-12467.5,-11232,-4417.5,-3687.4,-3418.5,-3902.5
-8679.2,-5241,-12448.8,-11226.1,-4412.1,-3684.1,-3411.4,-3894.9
-8675.7,-5249.8,-12441.2,-11223.7,-4410.8,-3683.3,-3409.5,-3893.1
-8678,-5248.3,-12447.1,-11222.1,-4413.2,-3684.9,-3413,-3897.8
-8684.1,-5242.7,-12463,-11224.8,-4417.9,-3687.3,-3420,-3904.3
-8695.5,-5243.1,-12487,-11232.9,-4422.7,-3689.4,-3427.8,-3910.9
-8702.4,-5248.6,-12501.4,-11240.4,-4427.5,-3693,-3433.4,-3917
-8699.2,-5252.7,-12495.2,-11239.2,-4424.3,-3692.5,-3428.7,-3914.4
-8691.7,-5251.6,-12479.4,-11230.7,-4419.9,-3690.4,-3421.3,-3907.5
-8682.2,-5244.9,-12460.9,-11223.2,-4418,-3688.7,-3416,-3900.4
-8675.5,-5238.2,-12447,-11219.5,-4412.1,-3685.7,-3408.7,-3894.2
-8675.6,-5236.4,-12445.3,-11219.2,-4413.6,-3685.5,-3410.3,-3894.5
-8681.9,-5242.4,-12459.4,-11221.8,-4417.4,-3687.1,-3415.7,-3899.7
-8691.8,-5253.2,-12488,-11223.9,-4420.6,-3689.4,-3421.4,-3906.9
-8700.2,-5261.2,-12503.1,-11231,-4424.9,-3692.9,-3428.8,-3916.3
-8701.6,-5263.5,-12502.2,-11232.7,-4427.5,-3694.8,-3431.8,-3919
-8696.5,-5268.3,-12486.1,-11235.3,-4423.9,-3694.5,-3427.9,-3916
-8686.6,-5269.6,-12455.3,-11238.7,-4420.7,-3693.6,-3422,-3911.9
-8675.5,-5252.6,-12432,-11225.4,-4415.5,-3689.7,-3412.7,-3901.5
-8671.3,-5234.5,-12429.9,-11211.9,-4411.7,-3687.1,-3408.5,-3896.1
-8674.9,-5227.9,-12439.7,-11210.8,-4414.3,-3687.5,-3412,-3900.7
-8685.8,-5237.6,-12453,-11222.8,-4420.8,-3689.9,-3420.7,-3909.1
-8697.9,-5252,-12477.3,-11236.7,-4426.9,-3694.5,-3431,-3919.3
-8702.4,-5254.4,-12487.4,-11239,-4427.1,-3695.6,-3432.4,-3922.5
-8699.2,-5249.7,-12483.5,-11235.3,-4425.1,-3694.8,-3429.7,-3920
-8690.4,-5246.1,-12468.4,-11232.1,-4419.4,-3692.3,-3422.6,-3914.1
-8680.4,-5246.1,-12448.4,-11224.1,-4412,-3688,-3412.5,-3903.9
-8672.3,-5240.1,-12432.8,-11215.7,-4409.8,-3685.2,-3407.2,-3896.3
-8672.5,-5234.6,-12433.7,-11217.4,-4411.5,-3685.5,-3408.6,-3896.5
-8679.4,-5237.7,-12450.7,-11225.6,-4415.3,-3687.5,-3414.3,-3901.1
-8690.1,-5249.6,-12470.4,-11233.7,-4419.6,-3691.1,-3422.6,-3910.6
-8698.1,-5261.2,-12485.7,-11236.7,-4425,-3694.7,-3430.3,-3918.9
-8700.5,-5260.2,-12489.7,-11239.7,-4425.8,-3695.9,-3431.7,-3920.9
-8694.5,-5251.2,-12478.2,-11239.2,-4420.3,-3693.8,-3424.9,-3916.2
-8685.9,-5242.2,-12460.5,-11233.4,-4414.6,-3691.1,-3416.3,-3909
-8676.7,-5237.7,-12441.2,-11223.9,-4411,-3688.7,-3410.1,-3901.6
-8670.9,-5235.7,-12430.8,-11217.2,-4410.2,-3687.7,-3408.4,-3897.8
-8676.5,-5238.8,-12440.5,-11216.7,-4410,-3688.3,-3410.8,-3901.2
-8684.9,-5245,-12457.7,-11221.1,-4413.1,-3690.7,-3416.2,-3909.1
-8691.5,-5249.3,-12476.7,-11237.1,-4417.5,-3694.9,-3423.8,-3918.8
-8697.9,-5253.7,-12489.7,-11245.4,-4423.3,-3699.1,-3430.9,-3925.1
-8696,-5258.4,-12486.1,-11235.8,-4423,-3698.8,-3428.9,-3922.4
-8690.4,-5251.1,-12474.3,-11227.1,-4418.1,-3695.7,-3421.9,-3916.3
-8680.5,-5241.7,-12455.3,-11219.4,-4414.9,-3692.2,-3415.6,-3908
-8674,-5237.5,-12445.6,-11212.4,-4409.1,-3687.5,-3407.8,-3899.2
-8673.2,-5236.8,-12454,-11211.2,-4407.1,-3684.7,-3405.1,-3896.1
-8679.4,-5243.5,-12459.6,-11219,-4413.5,-3687.9,-3413.3,-3902.2
-8686.9,-5246.8,-12470.3,-11228.7,-4418.8,-3690.6,-3420.7,-3908.6
-8694.8,-5247,-12483.6,-11236.5,-4422.8,-3694.6,-3427.9,-3918.3
-8694,-5245.5,-12477.4,-11239.9,-4425.9,-3699.1,-3431.5,-3924.2
-8686.3,-5246.8,-12463.4,-11236.2,-4420.4,-3696.2,-3424,-3916.7
-8679.9,-5248.8,-12449.7,-11229.1,-4415,-3692.6,-3415.8,-3907.4
-8672.8,-5249,-12432.3,-11218.8,-4410.2,-3688.9,-3407.8,-3899.5
-8668.3,-5246.2,-12420,-11216.8,-4406.1,-3685,-3403.1,-3895.9
-8672.3,-5243,-12432,-11220.5,-4406.5,-3685,-3405.6,-3897.3
-8679.4,-5238,-12449.9,-11223.9,-4411.1,-3687.4,-3412.6,-3903.7
-8689,-5235.4,-12470.2,-11232.4,-4414.4,-3689.7,-3419.4,-3911.5
-8695.1,-5236.8,-12483,-11242,-4419.1,-3692.1,-3424.7,-3917
-8694.2,-5244,-12481.3,-11240,-4420.4,-3692.1,-3424.6,-3915.1
-8690,-5247.9,-12468.7,-11228.6,-4414.1,-3688.9,-3417,-3907.9
-8682,-5244.1,-12453.1,-11217.4,-4409.8,-3686,-3409.5,-3899.2
-8674.2,-5238.8,-12440.4,-11211.9,-4407.9,-3683.7,-3404.4,-3891.6
-8675.7,-5237.2,-12438.2,-11217,-4409.9,-3685.1,-3407.6,-3894.7
-8680,-5239.8,-12449.5,-11226,-4412.5,-3687.4,-3413.2,-3901.8
-8687.1,-5242,-12467,-11230.4,-4414.8,-3689.8,-3418.9,-3909.1
-8696.2,-5244.2,-12483.7,-11233.9,-4421.5,-3693.3,-3427.6,-3916.9
-8698.1,-5243.5,-12488.3,-11233.8,-4424.7,-3695.4,-3431.2,-3919.2
-8694.3,-5245.2,-12479.6,-11229.3,-4421.9,-3694.4,-3426.9,-3914.8
-8687.3,-5249.9,-12466,-11221.5,-4416.7,-3691.8,-3419.3,-3907.6
-8678.9,-5247.3,-12451.2,-11216.1,-4410.3,-3687.8,-3410.7,-3899.1
-8674.4,-5238.7,-12438.5,-11211.4,-4407.9,-3685.9,-3406.7,-3895.5
-8675.3,-5232.5,-12439.1,-11210.9,-4408.7,-3686.3,-3408.9,-3898.3
-8681.3,-5233.7,-12452.2,-11218.4,-4411.7,-3687.9,-3414.5,-3904.3
-8690.2,-5241.5,-12472.3,-11230,-4416.7,-3690.7,-3422.4,-3912.4
-8697.7,-5252.1,-12487.6,-11237.9,-4420,-3693.2,-3427.7,-3917.8
-8697.8,-5257.8,-12488.3,-11240.8,-4419.3,-3694.1,-3427.2,-3917.5
-8691.8,-5251.9,-12479.7,-11233.5,-4416.4,-3691.7,-3421,-3910.2
-8682.5,-5246.2,-12473.2,-11219.9,-4409.5,-3687.2,-3410.6,-3898.5
-8674.6,-5246.9,-12452.1,-11210.3,-4407.6,-3685.9,-3406.6,-3894.4
-8673.4,-5244.3,-12443.6,-11207.1,-4407.8,-3685.6,-3407.1,-3894.6
-8677.1,-5239.8,-12449.8,-11214.3,-4410.4,-3688.2,-3411.9,-3901.2
-8683,-5237.1,-12453.1,-11228.6,-4419.2,-3694.3,-3421.8,-3912.7
-8692.5,-5238.8,-12466.6,-11239.5,-4423.8,-3695.9,-3428,-3918
-8695.9,-5243.3,-12478.6,-11240.2,-4422.4,-3694.9,-3427.7,-3918
-8694.5,-5242.8,-12474.8,-11235,-4417.9,-3692.6,-3422.6,-3914.2
-8687.8,-5238.6,-12458,-11229,-4415.5,-3689.6,-3417.4,-3907.7
-8679.9,-5237.1,-12446,-11226.9,-4415.3,-3688.6,-3414.8,-3900.9
-8672.1,-5238.1,-12434.1,-11218.3,-4410.3,-3685.5,-3408.1,-3894.1
-8674.8,-5240.3,-12440.2,-11216.1,-4409.8,-3685.1,-3409.3,-3896.6
-8681,-5245.1,-12453.5,-11218.9,-4417.2,-3688.8,-3417.8,-3904.7
-8689.1,-5259.8,-12470.5,-11225.2,-4423.4,-3692.6,-3426.5,-3912.1
-8696.8,-5272.2,-12488,-11235.6,-4425.5,-3694.6,-3430.8,-3917.7
-8696.4,-5263,-12490.9,-11243.6,-4425.4,-3694.3,-3429.3,-3916.8
-8690.6,-5246.2,-12482.1,-11244.6,-4420.9,-3691.5,-3422.6,-3909.1
-8684.8,-5235.3,-12467.1,-11234.6,-4415.7,-3689.1,-3415.6,-3903.1
-8676.4,-5229.5,-12447.1,-11223.4,-4409.9,-3685.7,-3407.1,-3895.8
-8673.6,-5227.2,-12438.7,-11218.4,-4407.9,-3684.3,-3404.8,-3893.7
-8679.8,-5227.8,-12448.2,-11220,-4412.5,-3686.5,-3411.4,-3898.7
-8687.9,-5232.4,-12465.8,-11227,-4416,-3688.2,-3417.6,-3905.1
-8697.6,-5241.6,-12484.8,-11233.6,-4419,-3690.4,-3423.8,-3912.4
-8701.2,-5247,-12493.8,-11236.6,-4420.4,-3691.3,-3426.7,-3914.9
-8698.3,-5249,-12490.1,-11238,-4417.9,-3689.1,-3423.2,-3910.2
-8691.2,-5247.2,-12474.8,-11234.3,-4416,-3687.3,-3417.6,-3904.3
-8677.8,-5241.8,-12453.2,-11220.3,-4412.8,-3684.6,-3410.6,-3896.3
-8671.6,-5238.3,-12438.7,-11210,-4408.9,-3681.5,-3404.7,-3890.2
-8672.7,-5234.3,-12439.4,-11211.3,-4408.9,-3681.5,-3406.3,-3891.5
-8680.2,-5239,-12454.5,-11225.2,-4412.7,-3683.6,-3412.6,-3898.2
-8689.7,-5243.9,-12474.9,-11236.8,-4416.8,-3685.9,-3419.5,-3906.1
-8695.8,-5243.6,-12493.8,-11241.1,-4421.3,-3688.3,-3425.2,-3912
-8696.2,-5242,-12509.2,-11235.6,-4420.5,-3688.1,-3423.3,-3909.9
-8691.4,-5244.1,-12495.2,-11226.9,-4416.1,-3686.9,-3417.9,-3905.9
-8682.9,-5246.4,-12470.4,-11218.2,-4410.9,-3684.3,-3410.1,-3897.7
-8673.5,-5242.7,-12445.6,-11211.5,-4406.7,-3682.9,-3404.2,-3891.1
-8666.5,-5233.8,-12424.8,-11215.3,-4406.8,-3683.9,-3404.2,-3893
-8669.6,-5228,-12431,-11225.2,-4411.1,-3684.5,-3409.9,-3895.9
-8677.5,-5229.8,-12450.1,-11229.8,-4414.9,-3685.6,-3415.4,-3900.7
-8687,-5236.8,-12469,-11234.8,-4419.6,-3688,-3422.4,-3908.9
-8692.9,-5244,-12478.3,-11236.3,-4421.6,-3689.1,-3426.1,-3913.5
-8691.8,-5249.4,-12480.5,-11230.7,-4419.3,-3689.3,-3423.6,-3911.4
-8685.3,-5245.7,-12469.6,-11225.2,-4415.3,-3687,-3416.9,-3904
-8677.5,-5240,-12450.2,-11219,-4409.9,-3684.6,-3408.9,-3896.6
-8672.2,-5234.7,-12432.4,-11212.8,-4409.4,-3683.7,-3406.2,-3892.4
-8672.7,-5231.2,-12430.7,-11213.8,-4411.7,-3684.2,-3409.3,-3893.1
-8678.7,-5232.2,-12443.6,-11222.6,-4414.5,-3685.6,-3414.6,-3898.8
-8687.5,-5241.6,-12463.8,-11227.8,-4419.1,-3688.1,-3421.6,-3906.5
-8697.8,-5248.2,-12485.1,-11228.1,-4423.3,-3690.5,-3426.9,-3911.4
-8701.4,-5248.8,-12491.1,-11228.2,-4424.7,-3692.4,-3429.4,-3913.8
-8693.3,-5245.3,-12478.6,-11225.8,-4419.6,-3690.2,-3422.7,-3907.4
-8684.6,-5240.1,-12459.1,-11220.1,-4412.6,-3687.2,-3414.1,-3899.3
-8676.6,-5239.5,-12440.4,-11213.5,-4408.2,-3684.9,-3407.8,-3892.2
-8672.8,-5242,-12432.2,-11214.8,-4408.5,-3684.3,-3406.8,-3890.3
-8675.6,-5244.3,-12440.9,-11218.7,-4409.7,-3685.6,-3410.1,-3894.4
-8684.2,-5244.8,-12460.2,-11221.9,-4412.7,-3688.5,-3416.9,-3901.7
-8695,-5242.1,-12481,-11224.3,-4416.8,-3691.3,-3424.3,-3909.2
-8700.8,-5241.7,-12492.4,-11230.4,-4420.6,-3693.4,-3428.4,-3914.3
-8698.8,-5243.5,-12486.5,-11233.1,-4423.1,-3693.4,-3427.7,-3911.5
-8689.6,-5242.8,-12470,-11228.3,-4418.8,-3690.3,-3420.5,-3903.9
-8679.2,-5238,-12451.3,-11218.1,-4412.6,-3686.9,-3411.3,-3895.6
-8672.1,-5231,-12435.1,-11209.1,-4407.6,-3684.1,-3404.7,-3889.5
-8672.6,-5226.4,-12434.6,-11209.4,-4407.5,-3683.4,-3405.4,-3890.6
-8678.3,-5226.2,-12449.8,-11217.6,-4409.8,-3684,-3409.8,-3895.1
-8687.6,-5228.2,-12482.1,-11225.9,-4414,-3686,-3416.5,-3901.5
-8698.8,-5236.6,-12500.6,-11233.3,-4419.2,-3690,-3425,-3911.2
-8701.9,-5246.1,-12500.5,-11233.6,-4418.1,-3690.5,-3424.3,-3911.6
-8695.5,-5248.6,-12484.5,-11231.2,-4415.9,-3689.1,-3420.1,-3907.7
-8684.3,-5243.4,-12452.7,-11228,-4413.1,-3688.1,-3414.1,-3902.3
-8673.4,-5237.4,-12427.2,-11217.6,-4406.8,-3683,-3404,-3890.1
-8671.7,-5232.9,-12422.3,-11210.4,-4402.6,-3679,-3398.5,-3884.7
-8674.9,-5232.4,-12431.8,-11212.7,-4406.4,-3680.4,-3403.7,-3889.8
-8685.3,-5234.9,-12447,-11219.3,-4412.1,-3683.1,-3412.7,-3897.4
-8694.8,-5243.1,-12473.2,-11229,-4418.5,-3687.6,-3422.8,-3907.9
-8700.5,-5250.2,-12486.7,-11235.8,-4419.6,-3689.7,-3424.9,-3911
-8698.7,-5252.1,-12482.8,-11234.4,-4419.2,-3690.8,-3422.8,-3910.3
-8689.9,-5247.8,-12465,-11225.9,-4416.2,-3689.3,-3417.5,-3904.9
-8681,-5241.9,-12447.6,-11219.9,-4410.7,-3686,-3409.1,-3896.2
-8675.3,-5237.1,-12434.9,-11216.2,-4406.2,-3683.4,-3403.3,-3890.1
-8674,-5236.7,-12433.7,-11211.5,-4404.5,-3682.7,-3402.1,-3889.7
-8680.6,-5240.8,-12448.7,-11212.8,-4407.7,-3684,-3408,-3893.8
-8692.7,-5249.5,-12470.5,-11218.2,-4413.8,-3687.7,-3418.1,-3904.4
-8702.7,-5253.5,-12487.9,-11226.7,-4422.4,-3692.4,-3428.3,-3913.3
-8706.7,-5256.3,-12492.8,-11235.7,-4426.1,-3694.4,-3431.6,-3915.4
-8703.6,-5253.5,-12482.5,-11237.7,-4426,-3693.8,-3429.2,-3911.8
-8694.2,-5243.3,-12462.9,-11235.4,-4419.1,-3691.2,-3420.4,-3904.6
-8683.9,-5234.1,-12442.9,-11221.6,-4412.5,-3688,-3411.3,-3896.7
-8680,-5230.2,-12435.5,-11212.7,-4410.2,-3685.6,-3407.8,-3892.5
-8684.6,-5231.4,-12447.7,-11216.6,-4411.6,-3685.7,-3410.3,-3895
-8692.5,-5237.1,-12465,-11224.6,-4416.2,-3687.8,-3416.9,-3902.3
-8701.4,-5243.5,-12482.7,-11230.1,-4420.2,-3690.5,-3424.2,-3910.7
-8708.5,-5250.2,-12494.6,-11230,-4422.9,-3692.7,-3428.5,-3915.8
-8703.8,-5247.7,-12491.9,-11225.9,-4421.4,-3691.8,-3425.8,-3912.5
-8697.8,-5241.6,-12478.4,-11221.1,-4417.8,-3689,-3419.9,-3905.9
-8689.7,-5236.7,-12458.8,-11218.2,-4411,-3685.6,-3411.5,-3897.8
-8680,-5237,-12444,-11213.2,-4402.6,-3681.4,-3401.8,-3889.4
-8679.1,-5235.6,-12453,-11207.6,-4402.5,-3680,-3401,-3887.2
-8686.3,-5238,-12462.9,-11210.8,-4410.3,-3684.1,-3411.2,-3895.6
-8695.3,-5245.5,-12476.2,-11213.8,-4413.2,-3686.8,-3417.7,-3903.3
-8703.9,-5252.9,-12491.3,-11221.1,-4417.5,-3690.7,-3425,-3912.4
-8704.4,-5251.3,-12484.8,-11228.6,-4419.3,-3693.9,-3427.4,-3917.4
-8698.9,-5243.1,-12470.2,-11233.4,-4415.4,-3691.4,-3420.6,-3910.5
-8692.3,-5238.4,-12454.9,-11235.7,-4410,-3687.7,-3412.5,-3901.6
-8684.8,-5235.6,-12435.6,-11226.5,-4404.9,-3683.8,-3405,-3893.7
-8680.9,-5239.3,-12424.8,-11212.9,-4403.1,-3681.5,-3401.8,-3890.4
-8686.1,-5245.9,-12437.2,-11210.6,-4407.7,-3684.3,-3408.2,-3895
-8692.6,-5249,-12454.8,-11216.3,-4410.1,-3686.6,-3413,-3901.5
-8701.9,-5247.2,-12475.8,-11227.4,-4416.1,-3689.9,-3421.2,-3909.8
-8708.9,-5245.5,-12489.4,-11235.1,-4422.7,-3694.4,-3429.6,-3917.3
-8706.8,-5247.4,-12487.9,-11238.7,-4425.7,-3695.2,-3430.6,-3916.2
-8699.2,-5249.4,-12474,-11239.1,-4422.1,-3692.6,-3424.4,-3910.2
-8691.6,-5243.9,-12457.9,-11232.3,-4417.3,-3689.2,-3416.4,-3900.6
-8685.3,-5238.3,-12447.2,-11220.1,-4414.7,-3686.8,-3410.5,-3893.1
-8684,-5236,-12444.3,-11212.9,-4412.5,-3687.2,-3410.1,-3895.4
-8690.6,-5236.1,-12454,-11217.5,-4417.1,-3690,-3416.7,-3902.1
-8699.7,-5240.1,-12470.7,-11227.3,-4422.5,-3693.1,-3424.9,-3910.2
-8708.1,-5244.2,-12488,-11234.4,-4426.7,-3696.9,-3432,-3919.1
-8710.1,-5246.4,-12496.5,-11236.3,-4428.2,-3698.4,-3433.5,-3921.9
-8704.3,-5244.9,-12487.8,-11234.1,-4426.8,-3697.9,-3430,-3918
-8695.9,-5247.6,-12469.1,-11231.2,-4421.6,-3695.5,-3422.9,-3910.6
-8688,-5255.3,-12451.5,-11223.6,-4415,-3691.1,-3413.9,-3901.2
-8683.9,-5256.5,-12442.1,-11213.9,-4414.1,-3689.5,-3411.5,-3897.8
-8684.1,-5255.6,-12445.1,-11209.8,-4416.4,-3690.5,-3414.6,-3900.7
-8691.1,-5250.6,-12457.7,-11215.6,-4420.3,-3693.1,-3420.5,-3907.1
-8699.5,-5243.3,-12473.1,-11228.1,-4424.9,-3696.1,-3427.5,-3914.7
-8705.8,-5242.4,-12487.5,-11242.9,-4428,-3698.1,-3433.4,-3921.3
-8706.2,-5247.6,-12487.1,-11244.8,-4426.8,-3697.4,-3431.8,-3920
-8699.8,-5248.8,-12478,-11235.5,-4422.4,-3695,-3425.5,-3912.8
-8690.4,-5246.4,-12471.7,-11225.8,-4415.6,-3691.5,-3416.1,-3902.9
-8681.6,-5238.1,-12449,-11219.1,-4410.3,-3688.8,-3409.2,-3896.2
-8678.6,-5232.6,-12437.9,-11218.7,-4408.6,-3687.3,-3407.3,-3894.8
-8684.4,-5234.8,-12445.3,-11226.7,-4414.6,-3690.7,-3415.2,-3903.1
-8689.2,-5238.5,-12447.6,-11234.3,-4420.6,-3695.3,-3422.8,-3912.7
-8697.2,-5242.4,-12462.2,-11243.6,-4422.5,-3696.3,-3426.9,-3916.4
-8703.6,-5248.5,-12475.1,-11248.7,-4424,-3696.6,-3429.4,-3917.4
-8701.9,-5252.9,-12469.6,-11239.1,-4420.7,-3694.7,-3424.7,-3913.2
-8694.3,-5252.6,-12453.3,-11224.4,-4418,-3691.2,-3418.6,-3905.9
-8685,-5244.6,-12439.9,-11217.2,-4413,-3689,-3411.9,-3898.4
-8681.3,-5235.8,-12430.3,-11218.1,-4407.5,-3687.4,-3405.2,-3894.3
-8681,-5231.8,-12433,-11219.8,-4411,-3689,-3409.4,-3897.7
-8686.5,-5234.4,-12444.8,-11221.9,-4418.1,-3692.8,-3418.4,-3905
-8695.2,-5237.9,-12463,-11227.7,-4422.6,-3696,-3426,-3912.4
-8702.6,-5243,-12479.2,-11237.2,-4424.9,-3698,-3430.7,-3918.3
-8703.8,-5247.9,-12481.7,-11240.2,-4425.3,-3697.5,-3429.2,-3917.6
-8698,-5244.6,-12472.2,-11236.9,-4422,-3694.2,-3422.5,-3909.5
-8690.1,-5242.5,-12455.2,-11228.7,-4415.5,-3690.6,-3414.3,-3902.6
-8680,-5238.3,-12436.6,-11217.9,-4409.8,-3687.8,-3407,-3896.5
-8676.3,-5237.4,-12430.4,-11211.2,-4407.8,-3687.4,-3405.7,-3895.7
-8683.6,-5242.2,-12441.5,-11211.5,-4410.7,-3689.1,-3410.7,-3900.2
-8692.9,-5252,-12460.4,-11216.8,-4416.4,-3692.3,-3418.7,-3907.9
-8703.6,-5258.4,-12481.7,-11226.1,-4423.1,-3695.8,-3427.6,-3915.6
-8708.4,-5256.9,-12491.6,-11236.8,-4424.7,-3697.2,-3430.7,-3919
-8706.2,-5248,-12485.4,-11239.7,-4420.3,-3694.9,-3425.7,-3913.7
-8698.8,-5240,-12467.2,-11235,-4418,-3693.1,-3420.2,-3907.2
-8687.7,-5235.1,-12444.6,-11225.8,-4414.3,-3690.6,-3413.9,-3898.4
-8681.4,-5233.4,-12431.6,-11222.5,-4410.3,-3687.7,-3409.1,-3892.5
-8684,-5234,-12434.7,-11226.3,-4410.3,-3688.5,-3410.4,-3894.7
-8691.6,-5239.6,-12449.5,-11233,-4414,-3690.7,-3416.6,-3900.9
-8698.6,-5249.1,-12470.4,-11237.9,-4423.6,-3694.4,-3427.3,-3908.7
-8705.5,-5253.8,-12490.3,-11237.9,-4429.3,-3696.8,-3433.8,-3914.4
-8708.3,-5250.9,-12505.5,-11235.3,-4429.1,-3696.6,-3433.1,-3914.1
-8705,-5249.8,-12491.8,-11235.4,-4427,-3696.3,-3430.3,-3911.1
-8696.8,-5244.7,-12467.8,-11229.3,-4422.2,-3694,-3422.9,-3903.9
-8687.4,-5239.5,-12443.3,-11220.9,-4418.8,-3692.3,-3416.8,-3897.8
-8679.3,-5238.7,-12420.9,-11217.6,-4418.1,-3693.1,-3415.9,-3898.7
-8681.6,-5237.4,-12424.6,-11223.8,-4417.8,-3692.1,-3416.4,-3900.2
-8690.3,-5235.4,-12445.9,-11232.3,-4420.4,-3693.1,-3422,-3906.5
-8698.5,-5237,-12466,-11239.3,-4424.5,-3694.6,-3428.3,-3914.1
-8704.7,-5241.4,-12476.1,-11243.1,-4427.1,-3695.2,-3431.5,-3918.3
-8704.3,-5247.9,-12478.1,-11241.9,-4424.9,-3696,-3430,-3917.2
-8695.6,-5246.8,-12462.8,-11235.7,-4420.7,-3693.9,-3422.7,-3910.3
-8686.9,-5244.1,-12443.4,-11223.7,-4413.2,-3689.3,-3411.9,-3900.7
-8680.2,-5243.5,-12428.5,-11213.3,-4409.1,-3687.1,-3406.5,-3895.5
-8680.9,-5243.7,-12429.2,-11210.3,-4412.5,-3688.7,-3410.2,-3897.8
-8685.6,-5239.4,-12445.4,-11217.1,-4417,-3690.5,-3416.2,-3903.8
-8693.3,-5238.1,-12467.5,-11230.7,-4421.2,-3692.5,-3422.6,-3909.7
-8701.6,-5243.1,-12486.9,-11238,-4424.5,-3694.5,-3428.3,-3914.5
-8705,-5248.9,-12493.2,-11237.3,-4424.4,-3694.9,-3429.5,-3916.4
-8698,-5246.5,-12478.8,-11231.5,-4421.9,-3692.6,-3424.9,-3910.7
-8688.8,-5239.9,-12455.2,-11221.7,-4416.1,-3688.6,-3416.7,-3901.5
-8679.4,-5233.6,-12435,-11211.4,-4411,-3684.8,-3409.1,-3893.2
-8673.4,-5227.8,-12425.8,-11208.8,-4408.9,-3682.3,-3405.3,-3889.7
-8677.2,-5226.7,-12432.8,-11213.4,-4411.4,-3683.7,-3408.8,-3893.8
-8685.8,-5232.4,-12449.8,-11219.5,-4416.3,-3686.7,-3416.1,-3901.5
-8698.8,-5239.4,-12473.4,-11226.2,-4421.5,-3689.9,-3424.1,-3910.2
-8705,-5247,-12485.8,-11232.1,-4426.9,-3693.3,-3429.9,-3916
-8699.5,-5247.2,-12478.2,-11230.4,-4426,-3693.5,-3428,-3913.9
-8692.2,-5242,-12461.6,-11224.1,-4421.2,-3690.5,-3421.1,-3906.6
-8682.6,-5234.4,-12440.3,-11216.9,-4412.8,-3685.4,-3411.1,-3896
-8673.9,-5226.6,-12423,-11211.7,-4409.8,-3682.4,-3405.8,-3888.5
-8673.7,-5225.3,-12423.3,-11212.8,-4410.2,-3681.8,-3406.8,-3888.3
-8680.3,-5229.8,-12442.1,-11217.2,-4411.2,-3682.6,-3410.5,-3892.9
-8689.7,-5235.8,-12475.6,-11221.4,-4415.4,-3684,-3417.5,-3900.3
-8698.1,-5244,-12487.4,-11233.9,-4422.5,-3688.2,-3426.8,-3908.4
-8698.5,-5246.5,-12484,-11239.1,-4420.9,-3687.7,-3425.4,-3908.3
-8693.8,-5240.9,-12468.4,-11234.1,-4415.1,-3686,-3418.1,-3903.9
-8683.2,-5234.9,-12437.4,-11223,-4413,-3686.7,-3413.8,-3899.5
-8671.2,-5228.9,-12414.3,-11207.3,-4410.7,-3682.9,-3406.8,-3888.6
-8665.6,-5225.6,-12409.8,-11201,-4404.5,-3678.6,-3400.3,-3882.4
-8671.1,-5227.4,-12418.9,-11211.2,-4403.7,-3677.9,-3401.6,-3886.7
-8680.2,-5229.1,-12433.4,-11225,-4409.4,-3679.1,-3408.9,-3894
-8691.8,-5238.5,-12458.7,-11233.6,-4417,-3683.7,-3421,-3903.7
-8697,-5244.4,-12473.3,-11233.4,-4422.8,-3687.1,-3427.7,-3908.7
-8695.2,-5245.4,-12472.1,-11229.2,-4423.4,-3686.6,-3426.5,-3905.9
-8686.9,-5244.4,-12454.3,-11223.3,-4420.4,-3685.2,-3420.3,-3900.1
-8674.1,-5237.5,-12428.8,-11213.9,-4413.1,-3681.4,-3410.5,-3890.4
-8666.1,-5229.9,-12412.9,-11207.4,-4408.3,-3678.7,-3404.4,-3883.6
-8666.4,-5227.2,-12413.1,-11208,-4407.9,-3678.3,-3404.1,-3883
-8674.7,-5227.9,-12431.1,-11214.5,-4410.3,-3679.7,-3408.9,-3887.5
-8685.4,-5233.3,-12451.9,-11224.3,-4416.4,-3684.3,-3418.8,-3898.7
-8694,-5242.9,-12468.5,-11231.4,-4422.6,-3688.7,-3426.8,-3908.3
-8697.1,-5251.5,-12473,-11234.4,-4422.8,-3690.3,-3427.8,-3911.1
-8692.9,-5249,-12463.2,-11232.2,-4420,-3689.4,-3424.1,-3907.8
-8684.1,-5238.6,-12446.8,-11225.7,-4417.1,-3687.9,-3417.6,-3901.3
-8673.8,-5232.3,-12427.9,-11218,-4412.9,-3685.5,-3410.3,-3894.3
-8671.1,-5230.7,-12419,-11215.7,-4410.2,-3683.4,-3407.1,-3890.4
-8675.8,-5232.7,-12428.4,-11221.2,-4412.8,-3684.5,-3411.2,-3893.7
-8683.9,-5235.8,-12444.9,-11225.9,-4418.9,-3689.3,-3419.8,-3903.2
-8694.3,-5246.3,-12464.6,-11229.7,-4423.9,-3693.7,-3428.2,-3913.1
-8702.2,-5257.1,-12478.2,-11235.2,-4427.6,-3696.4,-3433.1,-3917.8
-8699.6,-5259.5,-12474.4,-11233.4,-4425.7,-3695.5,-3430.5,-3914.7
-8692.7,-5251,-12458.7,-11228.5,-4420.7,-3692.3,-3423.8,-3907.6
-8682.3,-5234.8,-12436.6,-11220,-4413.6,-3688.2,-3413.9,-3898.2
-8673.2,-5223.4,-12422.8,-11212.4,-4408.5,-3685,-3406.5,-3890.6
-8671.1,-5217.7,-12432.7,-11208,-4408,-3683.8,-3405.4,-3888.9
-8679.1,-5219.8,-12442.7,-11212.4,-4412.6,-3685.5,-3412.4,-3895.4
-8689.5,-5229.2,-12457,-11220.3,-4417.9,-3687.9,-3420.5,-3902.6
-8695.5,-5234.7,-12468.1,-11229.8,-4421.3,-3690.6,-3426.5,-3910.1
-8694.8,-5236.7,-12463.7,-11235,-4426,-3694.5,-3430.7,-3915.4
-8691.5,-5235.6,-12455.2,-11230.4,-4421.2,-3691.5,-3424.3,-3909.5
-8687.1,-5233.2,-12441.8,-11223.3,-4414.5,-3687.2,-3415.5,-3899.9
-8678.3,-5230.5,-12423.2,-11214.2,-4408,-3682.1,-3405.8,-3890.6
-8672.7,-5227.6,-12409.4,-11206.3,-4403.2,-3678.4,-3400.4,-3884.4
-8677.3,-5230.5,-12420.2,-11208.8,-4405.6,-3680.5,-3406.5,-3889
-8687.1,-5235.3,-12438.9,-11216.5,-4410.5,-3683.8,-3413.8,-3896.9
-8696.9,-5243.5,-12459.8,-11225.5,-4415.2,-3687,-3421.3,-3905.4
-8702.8,-5253.9,-12471.3,-11231.5,-4420.2,-3689.5,-3426.4,-3911
-8703.2,-5255.2,-12469.2,-11230,-4420.8,-3689.2,-3425.5,-3908.3
-8696.7,-5249.6,-12456.6,-11226.4,-4416.5,-3687.5,-3419.1,-3901.6
-8687.9,-5243.6,-12440.8,-11223.1,-4411.2,-3685.7,-3411.4,-3893.9
-8681.5,-5245.3,-12431.9,-11213.6,-4407.3,-3683.8,-3405.5,-3887.1
-8682.3,-5250.8,-12434.2,-11209.7,-4406.5,-3684.8,-3406.4,-3890.2
-8687.2,-5246.8,-12443.9,-11217.1,-4411.7,-3688,-3412.8,-3897.6
-8697.6,-5241.8,-12458.9,-11231.4,-4416.2,-3691.5,-3420.8,-3906.4
-8707,-5243.7,-12475,-11238.7,-4423.5,-3695.4,-3430.8,-3914.8
-8709.6,-5245.9,-12480.7,-11237.1,-4425.7,-3696.8,-3433,-3917.3
-8703.9,-5244,-12470.4,-11232.4,-4421.3,-3695.6,-3427.2,-3912.8
-8695.9,-5238.7,-12453.5,-11225.9,-4414.9,-3693.4,-3419.5,-3906.1
-8687.6,-5234.1,-12436.6,-11218,-4408.2,-3689.9,-3411.3,-3897.4
-8682.6,-5233.6,-12426.3,-11212.5,-4405.6,-3688.8,-3407,-3894.1
-8683.8,-5238.8,-12428.9,-11207.7,-4409.1,-3689.9,-3410.3,-3897.1
-8692.4,-5245.4,-12443.4,-11216.5,-4412.9,-3691.7,-3416.6,-3903.5
-8702.1,-5247.4,-12462.8,-11232.7,-4420,-3695.1,-3426.1,-3911.5
-8708.4,-5248.1,-12479.3,-11243.5,-4424.2,-3697,-3431.8,-3916.8
-8706.4,-5249.4,-12478,-11239.9,-4419.9,-3695.7,-3427.4,-3914.8
-8698.9,-5248.5,-12465.3,-11225.6,-4414.5,-3691.9,-3418.9,-3905.7
-8689.7,-5243.7,-12458.1,-11213,-4409.2,-3686.9,-3409.8,-3895.5
-8682.5,-5237.5,-12437.3,-11206.8,-4405,-3684,-3403.5,-3889.5
-8680.4,-5235.2,-12427.9,-11206.6,-4405.6,-3683.4,-3403.7,-3889.3
-8684.5,-5235.9,-12434.4,-11217,-4407.4,-3685.3,-3407.2,-3895.4
-8689.1,-5239.4,-12440,-11227.1,-4412.7,-3690.7,-3415.2,-3906.1
-8697.6,-5240.1,-12457,-11230,-4417.2,-3692.5,-3421.4,-3911.2
-8706.4,-5240.7,-12471.9,-11233.2,-4419.4,-3693.5,-3425.2,-3913.5
-8703.5,-5239.9,-12466.3,-11233.8,-4412.3,-3690.3,-3417.5,-3909.1
-8694.5,-5238.4,-12445.5,-11225.5,-4407.5,-3686.2,-3410.5,-3900.3
-8686.3,-5242.1,-12430.2,-11211.2,-4410.2,-3685.7,-3410,-3895.2
-8680,-5240.1,-12417.8,-11202.8,-4406.5,-3683.3,-3404.4,-3890.2
-8682.5,-5235.6,-12422.2,-11208.2,-4408.3,-3683.5,-3406.9,-3892.4
-8689.4,-5233.4,-12435.3,-11222.5,-4411.4,-3686.1,-3412.8,-3899.7
-8699.1,-5235.8,-12454.4,-11237.7,-4414.5,-3688.9,-3419.6,-3908.3
-8707,-5241.2,-12470.6,-11240.2,-4419.8,-3691.8,-3426.2,-3914.5
-8706.4,-5242.6,-12471.9,-11236.4,-4422.4,-3692.5,-3426.1,-3912.4
-8701.5,-5241.9,-12463.2,-11227.2,-4417.1,-3690.3,-3418.9,-3904.6
-8696.3,-5242.5,-12447.5,-11215.8,-4410.2,-3687.6,-3411.4,-3898.7
-8685.3,-5235.5,-12428.3,-11205.5,-4407,-3684.9,-3406,-3892.2
-8678.7,-5230.4,-12421.9,-11202.9,-4406.6,-3683.9,-3405.1,-3891.3
-8683.8,-5232.2,-12431.8,-11208.3,-4409.9,-3685.5,-3409.8,-3896.8
-8692.6,-5238.1,-12447.8,-11217.3,-4415.8,-3688.9,-3417.5,-3904.9
-8701,-5251.5,-12466.8,-11223.7,-4421.7,-3693.3,-3425.7,-3914.1
-8705.9,-5261.6,-12478.6,-11227.5,-4423.5,-3695.3,-3428.9,-3917.9
-8703,-5257.1,-12476.3,-11228.5,-4420.5,-3692.9,-3425.1,-3913.2
-8697.4,-5245,-12464.5,-11226.2,-4416.3,-3690.5,-3418.9,-3906.8
-8687.3,-5234.1,-12446.4,-11219.5,-4411.5,-3687.5,-3411,-3898.5
-8679.8,-5226.1,-12431.6,-11214.1,-4409.7,-3685.2,-3406.6,-3893.3
-8681,-5225.4,-12433.9,-11215.7,-4409,-3685.1,-3407.5,-3894.7
-8687.6,-5224.8,-12445.9,-11218.9,-4411.7,-3687,-3413.2,-3900.2
-8697.9,-5231.6,-12466.3,-11225,-4415.6,-3689.5,-3420.3,-3908.3
-8705.3,-5240.7,-12485.3,-11229.3,-4421.3,-3692.2,-3427.6,-3914.1
-8705.7,-5245,-12499.2,-11229.6,-4422.2,-3692.5,-3427.9,-3913.6
-8701.7,-5243,-12484.1,-11225.5,-4419,-3691.2,-3422.4,-3909.2
-8692.7,-5237.4,-12458.8,-11216.5,-4412.9,-3688.5,-3413.5,-3901.6
-8681.3,-5237,-12433.3,-11205.9,-4408.3,-3686.1,-3406.7,-3894.8
-8674.5,-5240.5,-12413.7,-11201.2,-4410.1,-3688,-3407.8,-3896.5
-8678.8,-5247.2,-12421.6,-11205.3,-4412.3,-3689.1,-3411.1,-3900.2
-8688.1,-5253.9,-12442.4,-11213.2,-4414.8,-3690.2,-3416.2,-3905.2
-8697.6,-5255.3,-12461.7,-11225.4,-4420.1,-3692.8,-3423.4,-3912.8
-8703.3,-5255.2,-12469.8,-11233.1,-4422.1,-3693.5,-3427,-3916.9
-8702.6,-5249,-12469.8,-11230.7,-4422.5,-3694.4,-3427.2,-3915
-8697.3,-5238.2,-12459.5,-11227.1,-4418.7,-3691.1,-3420.3,-3907.4
-8687.5,-5231.6,-12441.6,-11221.6,-4413.6,-3687.4,-3411.9,-3898.9
-8678.2,-5228.9,-12424.3,-11214.7,-4408.7,-3684.4,-3405.8,-3893.3
-8677.7,-5230,-12424,-11212.5,-4408,-3683.5,-3405.8,-3892.3
-8685.2,-5233.2,-12437.6,-11217.4,-4411.1,-3685.8,-3411,-3898.6
-8695.5,-5240.7,-12457.7,-11231.2,-4415.6,-3688.5,-3418.1,-3905.7
-8703.1,-5248.9,-12478.3,-11236.7,-4423.2,-3692.4,-3427.1,-3911.4
-8706.1,-5253.2,-12484.8,-11234.9,-4425.7,-3695,-3429.8,-3914.7
-8700.3,-5246.9,-12472.9,-11229.9,-4421.5,-3694.3,-3423.4,-3911.1
-8692.8,-5239,-12453.7,-11225,-4417,-3692.4,-3416.1,-3904.7
-8685.6,-5235.4,-12434.4,-11220,-4412.6,-3690.4,-3409.7,-3898.8
-8682.2,-5234.2,-12424.6,-11212.9,-4411.3,-3689.6,-3407.5,-3896.7
-8684,-5236.7,-12430.9,-11212.4,-4413.4,-3690.5,-3411.1,-3900.5
-8690.7,-5242,-12448.8,-11217.9,-4415.2,-3691.5,-3415.9,-3906.9
-8703.3,-5249.4,-12472.5,-11226.2,-4420.2,-3693.4,-3423.7,-3914.1
-8709.4,-5252.2,-12485.5,-11232.7,-4427.2,-3697.4,-3430.7,-3920.7
-8707,-5251.1,-12479.4,-11230,-4425.1,-3696.3,-3427.1,-3917.9
-8697.5,-5246.4,-12460.5,-11221.8,-4419.6,-3693.6,-3419.8,-3910.3
-8686.4,-5245.3,-12439.1,-11212.7,-4413.9,-3691.1,-3411.6,-3902.4
-8679.8,-5256.4,-12425.7,-11200.6,-4410,-3689.5,-3406.3,-3897.3
-8681.1,-5256.3,-12427.3,-11200.8,-4411.1,-3689.6,-3407.5,-3898
-8685.5,-5245.7,-12444.1,-11210.8,-4413.3,-3690.6,-3412.1,-3902.5
-8691.8,-5236.1,-12474.1,-11221,-4417.3,-3692,-3418.6,-3907.9
-8700.9,-5237.6,-12488.2,-11233,-4422.4,-3696.1,-3427.3,-3916.6
-8705.5,-5240.7,-12489.1,-11239.5,-4421.6,-3696.2,-3427.1,-3917.6
-8700.2,-5240.9,-12475.1,-11235.7,-4420.5,-3695.3,-3423.7,-3913.3
-8687.7,-5242.3,-12442.7,-11232.2,-4416.8,-3694.3,-3417.3,-3908.6
-8678.8,-5247.8,-12421.9,-11226.7,-4409.9,-3689.8,-3407.3,-3899.3
-8677,-5249.4,-12420.8,-11215.9,-4407.6,-3687.9,-3404.2,-3896.1
-8681.5,-5244.5,-12430.5,-11217,-4412.8,-3689.8,-3410.1,-3901.5
-8689.3,-5240.5,-12441.6,-11223.4,-4416.8,-3690.8,-3415.9,-3907.4
-8700.3,-5241.3,-12464.6,-11229.1,-4421.7,-3694,-3424.7,-3915.5
-8705.7,-5241.2,-12477.5,-11229.2,-4424.3,-3696.3,-3429.3,-3920
-8703.5,-5245.3,-12472.6,-11222.6,-4422.4,-3695.9,-3426.3,-3916.5
-8696.8,-5249.6,-12455.5,-11212.5,-4420.2,-3694.4,-3421.1,-3909.9
-8687.1,-5245.8,-12434.7,-11209.2,-4411.5,-3690.2,-3410.1,-3899.5
-8678.2,-5234.8,-12419.8,-11208.5,-4404.9,-3685.6,-3401.1,-3892.6
-8676.8,-5229.7,-12420.7,-11213.3,-4406.8,-3685.9,-3402.8,-3893.3
-8685.3,-5232.4,-12437.6,-11218.8,-4410.2,-3688.3,-3408.6,-3898.1
-8698,-5238.4,-12458.3,-11225.3,-4416.4,-3692.3,-3418.3,-3908.3
-8707.5,-5244,-12475.3,-11231.4,-4419.7,-3695.3,-3424.5,-3916.4
-8710.2,-5245.5,-12479.5,-11233.3,-4423.7,-3698.2,-3429.2,-3920.1
-8704.7,-5243.9,-12467.7,-11230,-4420.8,-3697,-3425,-3916
-8696.2,-5240.3,-12448.3,-11222.5,-4416.4,-3693.8,-3417.3,-3907.8
-8687.4,-5239.4,-12428.6,-11214.5,-4412,-3690.7,-3410.1,-3899.8
-8685.6,-5239.5,-12421.9,-11211.9,-4408.6,-3688.3,-3406.1,-3895.7
-8690,-5243.8,-12431.2,-11215.3,-4410.4,-3688.9,-3409.6,-3898.6
-8698,-5249.6,-12450.9,-11225.8,-4419.4,-3693.1,-3420.2,-3907.2
-8705.5,-5254.9,-12472.2,-11235.3,-4423.8,-3697.5,-3428,-3916.6
-8710.1,-5255.9,-12481.8,-11233.6,-4426,-3699.9,-3431.5,-3921.8
-8708.9,-5257.3,-12475.1,-11229.9,-4425.7,-3699.9,-3429.9,-3919.8
-8702.4,-5257.6,-12457.8,-11224.9,-4420.1,-3697.5,-3422.8,-3913
-8693.8,-5260.6,-12438.8,-11219.7,-4413.7,-3693.6,-3413.8,-3905
-8686,-5261.2,-12426.9,-11209.8,-4407.6,-3690.2,-3404.9,-3897.8
-8684.2,-5249.3,-12436.6,-11201.3,-4407.7,-3689.5,-3405.2,-3897
-8691.1,-5241.7,-12444.4,-11212.7,-4414.2,-3693.1,-3414.1,-3904.4
-8695.7,-5237.1,-12455,-11229.7,-4419.4,-3695.7,-3421.5,-3910.5
-8702.8,-5234.9,-12467.7,-11241.5,-4424.1,-3698.6,-3429.3,-3918.4
-8703.3,-5236.1,-12461.6,-11242.8,-4426.4,-3701.7,-3432.2,-3923.4
-8697.2,-5234.6,-12448.1,-11234.6,-4420.9,-3697.7,-3424.6,-3915.5
-8689.3,-5234.3,-12433.8,-11223.6,-4416.2,-3693.7,-3416.8,-3906.7
-8680.7,-5233.3,-12416.4,-11211.8,-4409.8,-3689.4,-3407.9,-3898
-8677.4,-5236.5,-12405.1,-11207.4,-4405.8,-3686.2,-3402.9,-3893
-8683.7,-5244.9,-12419.7,-11220.6,-4412.2,-3689.5,-3411.8,-3898.8
-8690.4,-5251.2,-12435.4,-11232.4,-4416,-3692.2,-3418.7,-3905.3
-8699.3,-5253.1,-12455.1,-11234,-4421.4,-3695.4,-3427,-3913.9
-8706.5,-5252.1,-12467.9,-11232.4,-4425.5,-3698.6,-3432.2,-3920.5
-8706.3,-5247.9,-12464.2,-11227.3,-4423.5,-3698.3,-3429.5,-3918.3
-8701.2,-5243.4,-12450.4,-11221,-4417.2,-3695.5,-3421.4,-3911.8
-8691.3,-5239.5,-12431.9,-11214.3,-4412.2,-3691.9,-3412.5,-3902.1
-8682.8,-5239,-12421.6,-11209.4,-4408.4,-3688.6,-3405.7,-3893.9
-8683.2,-5240.7,-12424,-11211.4,-4407.7,-3687.9,-3406.1,-3895.5
-8690.4,-5243.3,-12435.4,-11217.2,-4411.4,-3689.8,-3411.7,-3901.1
-8699.3,-5250.3,-12451.2,-11223.6,-4414.5,-3691.8,-3417.8,-3907.4
-8707.7,-5257.8,-12468.9,-11232.8,-4419.2,-3694,-3425.1,-3915.9
-8710.3,-5264.7,-12476.1,-11234.9,-4422.6,-3695.5,-3428.2,-3918
-8704.6,-5265.4,-12465.8,-11227.6,-4420.4,-3695.2,-3424.2,-3913.6
-8695.7,-5258,-12447.9,-11222.9,-4415,-3692,-3416.3,-3905.6
-8684.5,-5244.1,-12430.2,-11218.3,-4408.1,-3687.8,-3407.6,-3896.5
-8677.4,-5228.2,-12417.2,-11211.7,-4404.5,-3685.6,-3402.4,-3892.4
-8680.9,-5222.6,-12419.8,-11208,-4406.1,-3686.5,-3405.1,-3894.9
-8689.4,-5228,-12434.6,-11215.4,-4414.8,-3690.7,-3415.9,-3902.9
-8700.4,-5237.7,-12455.2,-11227.2,-4419.5,-3693.6,-3423.3,-3911
-8707.5,-5242.2,-12470,-11232.9,-4421.8,-3695.6,-3427.9,-3916.5
-8707.4,-5240.8,-12469.1,-11232.3,-4421.7,-3695.8,-3427,-3915.5
-8700.1,-5236.8,-12458.8,-11226.2,-4417.4,-3692.3,-3419.4,-3907.4
-8689.5,-5235.3,-12452.4,-11216.2,-4409.9,-3687.8,-3408.6,-3896.9
-8683.6,-5234.4,-12436.4,-11208.8,-4407.5,-3686.5,-3404.5,-3891.6
-8681.2,-5232.5,-12430.1,-11206.2,-4405.8,-3687,-3403.6,-3891.7
-8684.5,-5234.1,-12434.2,-11211.6,-4410.7,-3690.3,-3409.8,-3899
-8690.4,-5237.4,-12436.7,-11220.2,-4422.4,-3696.6,-3422.7,-3910.2
-8697.2,-5240.6,-12447.6,-11228.3,-4428.9,-3698.4,-3430.1,-3915.1
-8704,-5246.2,-12459.2,-11238.9,-4425.1,-3697.4,-3428.7,-3916.1
-8702.2,-5251.7,-12454.4,-11236.9,-4421.9,-3696.1,-3423.8,-3912.8
-8695.2,-5255.1,-12439,-11224.9,-4419.7,-3693.9,-3418.4,-3906.8
-8686.6,-5254.9,-12426.4,-11210.5,-4416.4,-3692.7,-3412.8,-3899.6
-8679,-5254.7,-12414.3,-11203,-4412.2,-3691.1,-3407.4,-3894.4
-8683.3,-5251.2,-12419.2,-11206.7,-4412.5,-3691.9,-3409.5,-3898.1
-8690.9,-5243,-12431.9,-11215.9,-4417.2,-3695.4,-3416.6,-3906.1
-8699.1,-5238,-12449.4,-11227.3,-4423.1,-3698.3,-3425,-3913.4
-8704.6,-5240.2,-12465.3,-11233.8,-4426.1,-3699.4,-3429.3,-3918.1
-8702,-5247.9,-12468.3,-11230.9,-4423.5,-3697.5,-3425.2,-3915.5
-8697.4,-5254.6,-12460.6,-11220.9,-4419.1,-3694.7,-3418.5,-3907.7
-8690.5,-5252.1,-12443.8,-11211.8,-4412.5,-3691.2,-3410.5,-3900.3
-8679.6,-5243.2,-12423.8,-11203.7,-4405.7,-3687.9,-3402.1,-3892.6
-8676.2,-5232.2,-12418.3,-11202.9,-4401.8,-3685.4,-3398.8,-3890.3
-8682,-5225.2,-12429.4,-11210.8,-4405.8,-3686.7,-3404.5,-3894.6
-8688.8,-5230.7,-12446.5,-11222.3,-4415.7,-3690.5,-3415.8,-3901.9
-8697.2,-5240.3,-12465.8,-11229.4,-4419.8,-3692.7,-3422.8,-3907.9
-8702.1,-5241.8,-12473.6,-11233.4,-4418.6,-3693,-3423.9,-3910.3
-8700.6,-5241.9,-12468.7,-11232.7,-4413.7,-3689.9,-3418.1,-3905
-8692.9,-5238.3,-12451.6,-11232.2,-4409.4,-3687.1,-3410.4,-3897.6
-8683.6,-5233.3,-12430,-11229.1,-4404,-3683.4,-3402.2,-3888.8
-8676.9,-5232.6,-12416.5,-11216.9,-4401.5,-3681.7,-3398,-3884
-8678.4,-5234.2,-12419.3,-11209.6,-4402.9,-3681.6,-3399.7,-3886.5
-8684.9,-5236.3,-12433.2,-11211.7,-4406.1,-3683.2,-3405.7,-3892.8
-8694.7,-5241.2,-12454.4,-11223.5,-4413.8,-3687.2,-3416.1,-3902.9
-8702.9,-5247.8,-12476.8,-11240.2,-4419.4,-3690,-3423,-3909.4
-8703.8,-5248.6,-12493.1,-11243.9,-4418.1,-3689.7,-3421,-3908.3
-8699.4,-5243.6,-12476.7,-11236.6,-4414.8,-3688.8,-3416,-3903.8
-8690.9,-5239.5,-12452.7,-11226.3,-4409.4,-3686,-3408.7,-3896.4
-8681.2,-5240,-12428.9,-11218.5,-4404.9,-3683.1,-3401.7,-3889.1
-8675.5,-5238.5,-12408.1,-11217.4,-4404.5,-3683.5,-3400.1,-3888.9
-8678.4,-5235.5,-12415.5,-11221.1,-4407.5,-3683.4,-3403.9,-3891.7
-8689.2,-5241.9,-12436.4,-11224.9,-4411.4,-3684.4,-3410.6,-3897.1
-8701.1,-5254,-12457.6,-11230.6,-4413.7,-3686.2,-3416,-3904.7
-8709,-5256.9,-12468.8,-11234.2,-4415,-3687.1,-3418.5,-3908.7
-8708.2,-5250,-12469.9,-11232.3,-4414.3,-3687.3,-3417.2,-3906.4
-8700.6,-5244,-12456.8,-11227.4,-4410.2,-3685,-3410.1,-3899.2
-8689.5,-5246.4,-12440,-11220,-4407.2,-3682.7,-3403.8,-3891.1
-8682.4,-5244.6,-12425.6,-11212.8,-4404.6,-3680.3,-3399.1,-3886.4
-8684,-5242.1,-12426,-11214.9,-4406,-3680.2,-3401.1,-3887.5
-8690.8,-5247.9,-12439.3,-11224.1,-4410,-3682.1,-3407.2,-3893.5
-8699.9,-5258.8,-12458.8,-11227.1,-4412.4,-3684.2,-3412.3,-3900.5
-8708.8,-5255.7,-12478.9,-11231.1,-4415.9,-3687.5,-3418.3,-3906
-8711.7,-5246.5,-12484.8,-11237.4,-4419.9,-3690.1,-3422.6,-3909.2
-8704.5,-5238.9,-12471.2,-11237.1,-4419.8,-3688.9,-3419.3,-3904
-8693.2,-5235.6,-12450.1,-11230.1,-4413.9,-3685.9,-3411,-3896.2
-8683.3,-5233.9,-12430.2,-11220.5,-4409.8,-3682.8,-3404.9,-3888.5
-8680.3,-5231.8,-12424,-11217.1,-4407.7,-3681.7,-3402.3,-3886.4
-8685.4,-5233.6,-12432.5,-11220.9,-4410,-3683.3,-3405.5,-3889.8
-8693.8,-5238.5,-12451,-11230,-4413.1,-3685.3,-3412,-3895.8
-8704.9,-5245,-12475.2,-11239.6,-4418.1,-3688,-3420.3,-3903.4
-8711,-5251.3,-12487.4,-11245.7,-4421.3,-3689.7,-3424,-3908.2
-8705.4,-5254.7,-12476.8,-11240.3,-4416.1,-3688.5,-3418.1,-3904.4
-8697.5,-5253.8,-12458.7,-11231.9,-4413.6,-3687.3,-3412.6,-3898.3
-8687,-5248.8,-12436.8,-11223.8,-4411.2,-3685.4,-3407.4,-3889.9
-8681.9,-5242.7,-12421.9,-11215.3,-4407.2,-3682.8,-3402.4,-3885.1
-8684.4,-5243.8,-12423.7,-11211.8,-4408,-3683,-3403.7,-3886.7
-8690.3,-5249.8,-12441.7,-11219.6,-4413,-3686,-3410.2,-3892.4
-8699,-5261.2,-12474.1,-11231.6,-4416.4,-3688.4,-3416,-3899.3
-8708,-5272,-12489.7,-11241.8,-4422.6,-3693,-3424.7,-3909
-8708.8,-5262.9,-12489.4,-11243.1,-4424,-3694.7,-3426.1,-3911.3
-8700.7,-5247.6,-12470.2,-11237.5,-4420.8,-3694.4,-3421.8,-3907.3
-8688.4,-5237,-12436.4,-11234.1,-4415.2,-3694,-3414,-3902.5
-8679,-5236.8,-12413.6,-11221.7,-4408.4,-3688.7,-3403.2,-3892
-8676.1,-5241.9,-12410.5,-11214,-4406.1,-3686.4,-3400.6,-3888.3
-8681.5,-5241.6,-12421.1,-11216,-4407.3,-3686.6,-3404.3,-3892.3
-8691.9,-5242.2,-12437.6,-11223.1,-4413.4,-3688.3,-3412.1,-3898.9
-8701.6,-5246.3,-12461.6,-11232.8,-4421.5,-3692.4,-3422.9,-3907.2
-8704.9,-5246.1,-12473.5,-11237.4,-4423.8,-3694.4,-3426.6,-3910.5
-8702.2,-5245.9,-12470.9,-11237.4,-4420.5,-3693.5,-3422.8,-3908.1
-8692.6,-5243.1,-12453.9,-11232,-4415.5,-3691.4,-3416.1,-3902
-8682.7,-5241.2,-12433.9,-11223.4,-4409.5,-3688.2,-3407.4,-3893.1
-8675.4,-5238.6,-12418.9,-11217.6,-4404.2,-3685.3,-3399.9,-3886
-8676.5,-5238.7,-12421.1,-11222.3,-4405.1,-3686,-3401.3,-3887.2
-8682.7,-5241.3,-12441.2,-11237.2,-4409.5,-3687.8,-3407.3,-3892.1
-8693.2,-5248.9,-12461.4,-11245,-4416.3,-3692.2,-3417.9,-3902.9
-8702.2,-5256.7,-12475.4,-11240.7,-4422.9,-3696.2,-3426.8,-3911.9
-8704.1,-5255.8,-12479.9,-11230.6,-4422.5,-3696.4,-3427.1,-3912.9
-8698.6,-5253.3,-12469,-11223.3,-4419.3,-3694.8,-3422.3,-3907.7
-8690.3,-5250.7,-12448.6,-11220.9,-4415.1,-3691.8,-3414.2,-3899.2
-8681.5,-5243.3,-12427.3,-11215.5,-4408.7,-3687.8,-3405.3,-3890.2
-8676.6,-5231.8,-12417.6,-11212.1,-4404.9,-3685.5,-3401.4,-3886.2
-8681.9,-5226.4,-12428.5,-11213.5,-4408.8,-3686.8,-3406.5,-3890.1
-8690.1,-5231.6,-12446.2,-11221.8,-4414.7,-3690.8,-3413.9,-3899.1
-8699.6,-5240.2,-12466.3,-11228.7,-4418.9,-3694.7,-3421.5,-3908.8
-8706.3,-5247.6,-12479.8,-11231.3,-4421.4,-3696.2,-3425.5,-3913.6
-8703.9,-5250.5,-12475.8,-11227,-4420.7,-3694.2,-3422.9,-3909.8
-8696.1,-5251.3,-12459.7,-11219.6,-4418.5,-3692,-3417.3,-3902.3
-8686.1,-5248.1,-12440.4,-11213.5,-4414.4,-3689.2,-3410,-3894.2
-8676.6,-5240.1,-12428.9,-11208.9,-4406.5,-3684.8,-3401.5,-3885.7
-8674.6,-5233.8,-12440.9,-11210.2,-4405,-3683.4,-3400.7,-3884.1
-8683.6,-5231.5,-12453.5,-11219.9,-4413.8,-3687.2,-3411.1,-3892.7
-8692,-5233.6,-12468.1,-11224.5,-4417.1,-3690.2,-3416.8,-3900.3
-8698.6,-5240.4,-12479.7,-11231.2,-4422.5,-3694.4,-3424.4,-3908.9
-8698.1,-5245.2,-12470.1,-11233.7,-4423.8,-3696.4,-3425.6,-3912.1
-8691,-5246.8,-12456.2,-11227.5,-4420,-3692.7,-3419.3,-3903
-8684.6,-5250.7,-12444.3,-11217.6,-4414.1,-3688.8,-3410.7,-3894.8
-8677.4,-5247.9,-12425.7,-11210.5,-4409.3,-3685.1,-3402.4,-3886.4
-8674.2,-5237.2,-12410.7,-11208.1,-4406.8,-3683.3,-3398.9,-3882.5
-8678.7,-5230.7,-12420.8,-11214,-4409.9,-3685.4,-3404.2,-3887.7
-8684.6,-5230,-12436.9,-11220.4,-4411.8,-3687,-3408.5,-3893.8
-8692,-5235.6,-12457.4,-11228.1,-4417.8,-3689.8,-3417.1,-3901.5
-8699.5,-5242.5,-12471.9,-11234.8,-4422.4,-3692.7,-3423.6,-3907.2
-8698.8,-5244.8,-12469.5,-11233.3,-4418.5,-3691.2,-3419.3,-3904.2
-8691.5,-5241.3,-12455.5,-11225.7,-4412.8,-3688.1,-3411.1,-3896.8
-8682.3,-5238.2,-12436.9,-11213.9,-4412,-3685.8,-3405.5,-3888.1
-8676.1,-5236.9,-12425.2,-11207,-4405.4,-3682.2,-3397.4,-3879.8
-8677.1,-5235.2,-12425.4,-11207.9,-4406.4,-3683.7,-3400.4,-3882.6
-8683.7,-5237.4,-12436.1,-11214.9,-4412,-3686.6,-3407.7,-3889.8
-8693.5,-5242.8,-12454.1,-11222.1,-4417,-3689.9,-3415.4,-3897.8
-8703.2,-5253.8,-12473.4,-11224.7,-4421.8,-3693.2,-3422.7,-3905.5
-8705.7,-5264.4,-12480.4,-11222.7,-4421.3,-3694.1,-3422.9,-3907.3
-8700,-5262.2,-12471.2,-11214.7,-4418.1,-3692.9,-3418.1,-3903.1
-8691.4,-5249.5,-12455.2,-11205.1,-4418,-3691.8,-3414.4,-3896.7
-8686.1,-5236.4,-12439.6,-11202.8,-4413.8,-3688.5,-3407.1,-3888.2
-8681.6,-5230.6,-12429.2,-11209,-4409.6,-3686.5,-3402.5,-3884.6
-8682.3,-5227.8,-12434.9,-11218.9,-4411.2,-3686.6,-3405.4,-3886.9
-8689.6,-5231,-12449.5,-11226.8,-4414.5,-3688,-3411.4,-3892.9
-8698.3,-5238.9,-12467.1,-11232.7,-4418.7,-3691.4,-3418.8,-3901.7
-8704.5,-5241.9,-12479.1,-11234.8,-4423.2,-3695.3,-3424.4,-3908.4
-8705,-5240.8,-12478.4,-11231.2,-4421.4,-3696,-3422.5,-3908.7
-8699.4,-5239,-12474.2,-11226.1,-4416.3,-3694.4,-3415.2,-3903.4
-8689.3,-5235.5,-12469.4,-11218.2,-4410.1,-3690.3,-3405.1,-3893.2
-8683.3,-5231.8,-12448.9,-11214.2,-4413.7,-3689.9,-3405.3,-3889.4
-8681.6,-5234.9,-12438.5,-11215.3,-4415.2,-3690,-3406.7,-3889
-8685.1,-5240,-12441.7,-11218.8,-4416.8,-3692,-3411.3,-3894.9
