EEG1,EEG2,EEG3,EEG4,EEG5,EEG6,EEG7,EEG8
0,0,0,0,0,0,0,0
-5103.3,-3798.8,-9475.6,-7519.6,-6140.8,-1883.8,-4991.4,-7027.5
-5085.9,-3781.2,-9455.5,-7497.7,-6121.3,-1866.2,-4973.3,-7010.8
-5076.1,-3771.4,-9444.8,-7483.2,-6111.3,-1858,-4963.4,-6997.9
-5096.5,-3790,-9460.3,-7490.2,-6127.3,-1876,-4979,-6995
-5111.5,-3806,-9473.8,-7503.3,-6142.8,-1892.2,-4994.3,-7002.6
-5142,-3836.9,-9497.8,-7527.9,-6176.2,-1925.1,-5025.4,-7036.6
-5152,-3845.4,-9511.5,-7541,-6186.2,-1934.1,-5034.4,-7049.4
-5151.1,-3840.6,-9515,-7543,-6186.3,-1933.3,-5034.8,-7047.9
-5126.4,-3814.8,-9493.7,-7528.1,-6165.9,-1909.5,-5013.6,-7038.5
-5103.1,-3793.4,-9462.3,-7498.8,-6142.1,-1885.4,-4988.8,-7016.6
-5084.3,-3778,-9444.1,-7479.3,-6117.9,-1866.1,-4968,-6982.4
-5090.4,-3785.6,-9449.3,-7482.8,-6122,-1872.5,-4972.9,-6972.4
-5104.7,-3798.6,-9461.3,-7493.4,-6134.2,-1885.4,-4985.2,-6977.8
-5133.6,-3826.7,-9486.1,-7514.3,-6159.6,-1912.2,-5011.2,-6990.3
-5148.9,-3842,-9504.6,-7534.5,-6177.7,-1928.8,-5028.8,-7005.3
-5145.5,-3843.2,-9507.5,-7543,-6180.2,-1929.9,-5031.4,-7016
-5132,-3830.7,-9496.2,-7538.4,-6171.6,-1917.6,-5021,-7020.3
-5108.6,-3799.6,-9473.1,-7516.4,-6148.8,-1890.6,-4995.7,-7015.6
-5080.8,-3774.8,-9449.9,-7490.8,-6120.4,-1866,-4970.9,-7000.9
-5075.8,-3774,-9444,-7479.9,-6113.8,-1862.1,-4966,-6990
-5088.2,-3786.9,-9452.1,-7484.5,-6122.9,-1872.1,-4975.2,-6986.4
-5109.9,-3807.2,-9469,-7498.8,-6141.5,-1891.1,-4993.1,-6988.9
-5139,-3834.7,-9494,-7523.8,-6169.5,-1919.1,-5019.8,-7000.3
-5151.6,-3845.7,-9509.5,-7540.9,-6183.8,-1932.3,-5033.8,-7012.9
-5142.8,-3833.7,-9506.4,-7541.5,-6175.4,-1922.7,-5025.2,-7017.4
-5121,-3815,-9490.6,-7533.4,-6155.3,-1903.6,-5006.4,-7011
-5092.6,-3787.1,-9463.1,-7506.9,-6128.4,-1875.2,-4979.9,-6999.6
-5078.9,-3771.3,-9443.7,-7483,-6112.2,-1859.4,-4964.3,-6987.4
-5081.7,-3778.9,-9444.9,-7477.4,-6118,-1865.7,-4969.7,-6981.9
-5092.6,-3791.3,-9459.6,-7484.6,-6127.6,-1875.4,-4979.3,-6977.8
-5121.8,-3818.1,-9485.8,-7504.7,-6151.3,-1900.7,-5002.2,-6984.9
-5142.3,-3840.4,-9508.6,-7528.4,-6173.4,-1922.4,-5022.4,-7000.6
-5144,-3841.8,-9514.6,-7542.4,-6178.7,-1925.2,-5027.2,-7015.2
-5128,-3826.9,-9507.4,-7544.3,-6167.9,-1912.5,-5017.2,-7027.9
-5103.2,-3801.4,-9483.5,-7518.4,-6142.8,-1887.3,-4993.2,-7022.2
-5083.9,-3777.8,-9459.7,-7490.8,-6119.8,-1864.5,-4970.3,-7008.3
-5077.3,-3769.6,-9445.7,-7476.9,-6113.3,-1858.8,-4963.8,-7001.8
-5087.3,-3783.2,-9444.7,-7481.9,-6129.6,-1873.9,-4978.2,-7021.3
-5114,-3808.8,-9463.1,-7497.7,-6150.4,-1897.2,-4999,-7027.3
-5144,-3839.4,-9493.5,-7523.9,-6178.3,-1926.6,-5026.6,-7032.8
-5150.4,-3848.7,-9506.6,-7537.8,-6190.6,-1935.3,-5036.4,-7038.9
-5147.2,-3843.6,-9501.7,-7528.9,-6185.6,-1928.1,-5029.8,-7033.6
-5130.5,-3827.6,-9492.6,-7518.9,-6166.8,-1911.4,-5013.8,-7012.3
-5096,-3794.5,-9466.6,-7501.4,-6137.9,-1881.1,-4986,-6997.8
-5081.1,-3772.7,-9448.2,-7483,-6116,-1859.3,-4964.7,-6988
-5087.7,-3776.3,-9449.6,-7477.4,-6115.5,-1861.3,-4965.3,-6981.5
-5105.4,-3791.7,-9462,-7485.1,-6129.2,-1876.3,-4979,-6982.6
-5142.6,-3825.1,-9491,-7507.1,-6158.2,-1906.7,-5008,-6992.9
-5166.6,-3852.8,-9515.9,-7533.3,-6180.3,-1925.6,-5027.8,-7007.8
-5164.7,-3856.8,-9519.2,-7542.2,-6181.6,-1923.2,-5027.3,-7017
-5151.6,-3848.2,-9512.6,-7539.1,-6167.6,-1910.4,-5015.8,-7017.4
-5119.7,-3823.2,-9492,-7525.9,-6148.6,-1891.9,-4998,-7011.9
-5088,-3788.6,-9465.4,-7501,-6127.2,-1870.6,-4977.6,-7002.1
-5076,-3772.6,-9450.1,-7482.1,-6119.3,-1866.2,-4971.5,-6992.2
-5084.7,-3786.1,-9455.4,-7485.8,-6131.2,-1879,-4982.1,-6991.5
-5103.3,-3807.2,-9469.9,-7499.6,-6147.8,-1897.1,-4998.3,-6996.4
-5132.3,-3835,-9494.4,-7524.3,-6171.3,-1922.5,-5022,-7007.1
-5147.2,-3852.1,-9510.1,-7545.5,-6184.8,-1936.4,-5035.6,-7015.3
-5137.6,-3842.8,-9506.1,-7544.9,-6179.9,-1929.2,-5030.4,-7020.1
-5120.4,-3829.1,-9493.6,-7536.1,-6165.9,-1914.9,-5017.2,-7020.6
-5089.6,-3803.4,-9469.3,-7516.6,-6138.7,-1887.2,-4991.1,-7011.9
-5064.5,-3782.5,-9448.9,-7495.1,-6116.1,-1867.2,-4970.5,-6994.7
-5071.4,-3788.7,-9449,-7489.6,-6119.4,-1872.2,-4973,-6986.6
-5080.4,-3799.5,-9456.1,-7494.6,-6129.8,-1881.2,-4981.6,-6987.4
-5106.1,-3824.8,-9480.6,-7514.3,-6155.8,-1907.8,-5006.4,-6997.8
-5121.4,-3841.7,-9506.8,-7546.6,-6178.2,-1928.4,-5027.9,-7022.2
-5128.6,-3847.8,-9511,-7551.9,-6185.3,-1934.4,-5035.7,-7032.6
-5117.5,-3842.5,-9499.6,-7546.5,-6179,-1927.4,-5029.7,-7034.5
-5091.6,-3823.2,-9476.3,-7530.6,-6159.8,-1907.1,-5010.6,-7034
-5059.9,-3798.4,-9446,-7505,-6139.7,-1885.6,-4990.5,-7044.4
-5061,-3791.6,-9438.2,-7490.3,-6128.5,-1876.9,-4980.7,-7034.2
-5074.1,-3801.3,-9451.6,-7495.9,-6135.2,-1885.7,-4987.6,-7022.8
-5087.1,-3817.3,-9464.4,-7506.2,-6149,-1899.1,-5000.2,-7018.3
-5119.2,-3849.7,-9484.1,-7524.9,-6179.8,-1931.1,-5029.2,-7019.9
-5133.9,-3864.3,-9501.2,-7547.1,-6192.8,-1945.2,-5043.2,-7014.1
-5123.5,-3858.5,-9499.3,-7553.6,-6188.3,-1938.6,-5038.5,-7017.3
-5101.8,-3842.3,-9484.7,-7544.8,-6170,-1919.1,-5020.9,-7021.1
-5077.3,-3818.6,-9461.2,-7523,-6143.6,-1893.5,-4995.7,-7013.6
-5056.6,-3794.8,-9439.5,-7499.8,-6117.7,-1868.2,-4970.2,-7001.6
-5056.4,-3797.2,-9435.5,-7491.1,-6114.8,-1868.4,-4968,-6994
-5071,-3807.8,-9446.4,-7498.2,-6127.5,-1881.3,-4978.9,-6995.3
-5096.6,-3836.5,-9469.3,-7516.6,-6156.5,-1910.2,-5006.3,-7004.5
-5118.1,-3857.5,-9493.7,-7541.5,-6177.7,-1931.1,-5028,-7017.5
-5123.2,-3862.1,-9504.4,-7553.9,-6183.1,-1934.3,-5033.5,-7027.3
-5112.3,-3851.3,-9496.5,-7548.9,-6173,-1924.8,-5024.8,-7029.4
-5093.6,-3830.6,-9476.6,-7533.7,-6152,-1904.6,-5005.2,-7023.8
-5067.7,-3805.5,-9449.9,-7511.2,-6126.3,-1877.9,-4980,-7012.3
-5058,-3796.4,-9435.3,-7493.8,-6113.7,-1865.7,-4967.7,-7001
-5067.8,-3804.3,-9440.5,-7494.6,-6118.5,-1873,-4972.2,-6996.3
-5082.6,-3822.1,-9455.2,-7508.9,-6133,-1890.8,-4987.1,-6995
-5104.9,-3853.5,-9480.9,-7532.9,-6161.5,-1919.2,-5014.5,-7004.7
-5122.2,-3866,-9502.3,-7550.7,-6177.5,-1932.4,-5029.8,-7018.1
-5121.9,-3859.4,-9507.1,-7550.7,-6175.4,-1928.4,-5028.4,-7025.1
-5104.7,-3843.5,-9496.3,-7541.5,-6161.5,-1914.4,-5016.3,-7020
-5075.6,-3814.1,-9467,-7519,-6137,-1888.2,-4991.5,-7010
-5055.8,-3793.7,-9439.6,-7495.2,-6117.7,-1869,-4971.8,-6999
-5057.6,-3797.1,-9437.9,-7491.6,-6120,-1871.3,-4972.5,-6996.5
-5064.1,-3805,-9452.5,-7505,-6129.8,-1879.6,-4981.2,-7006.4
-5089.3,-3829.3,-9471.6,-7513,-6151.6,-1904.1,-5004.1,-7012.3
-5117.5,-3855.6,-9497.7,-7533.1,-6177.5,-1930.5,-5029.4,-7022.6
-5123.5,-3861.7,-9506.9,-7546.6,-6186.6,-1937.2,-5037.8,-7036.4
-5117.9,-3857.2,-9499,-7546.4,-6186.6,-1933.8,-5036.5,-7061
-5096.3,-3833.2,-9477.6,-7531.8,-6160.7,-1906,-5011.2,-7056.8
-5077.7,-3811.7,-9455.3,-7509.9,-6138.2,-1885.7,-4990.7,-7037.5
-5055.9,-3794.1,-9435.1,-7490.5,-6121.7,-1868.5,-4973.6,-7020.1
-5068.2,-3808.6,-9438.3,-7484.1,-6131.4,-1880.7,-4981.9,-7006.2
-5089.5,-3823.4,-9460.5,-7496.7,-6141.6,-1895,-4994.2,-6989.2
-5113,-3847,-9485.9,-7522.1,-6165.2,-1919.4,-5017.8,-6994.7
-5129.6,-3862.3,-9502.1,-7544.9,-6181.9,-1933.6,-5033.6,-7011.1
-5120.6,-3857.7,-9499,-7547.3,-6180.2,-1929.8,-5032,-7020.7
-5106.8,-3848,-9489.3,-7541.5,-6169.7,-1917.6,-5021.3,-7023.2
-5079.4,-3823.8,-9467.8,-7523.7,-6146,-1892.3,-4997,-7016.8
-5053.7,-3795.8,-9442.3,-7498.3,-6123,-1867.1,-4972.4,-7004.5
-5053.9,-3795.1,-9436.5,-7488.3,-6122.3,-1866.9,-4970.6,-6996.4
-5066.6,-3809.5,-9445.6,-7496.1,-6131.1,-1879.4,-4981.3,-6994.8
-5090.9,-3827.9,-9463.9,-7510.2,-6148.5,-1899.4,-4999.7,-7000.2
-5121.1,-3855.5,-9490.5,-7533.9,-6173.8,-1926.6,-5025.7,-7013
-5126.1,-3864.2,-9500.6,-7548.2,-6183.1,-1935.5,-5035.5,-7023.3
-5117,-3855.9,-9494.9,-7547.1,-6176.1,-1925.5,-5028.1,-7027
-5097.6,-3838.2,-9478.4,-7534.3,-6159.4,-1907.8,-5012,-7024
-5066.4,-3808.5,-9450.2,-7508.8,-6128.4,-1876.4,-4981.7,-7011.1
-5054.7,-3795.4,-9435.4,-7490.3,-6111.4,-1861.8,-4966,-6993.6
-5062.5,-3802.8,-9439.1,-7487.1,-6118.5,-1869.3,-4971.6,-6986.6
-5076.5,-3815.7,-9450.8,-7495.8,-6133,-1885.6,-4985.7,-6988.8
-5103.9,-3843.2,-9476.6,-7516.6,-6158.4,-1912.9,-5011.5,-6998.6
-5123.5,-3864.2,-9500.3,-7540,-6175.1,-1929.3,-5028.8,-7007
-5121.9,-3863,-9501.7,-7546.3,-6170.7,-1922.5,-5023.8,-7012
-5114.8,-3853.8,-9492.1,-7539.4,-6159.4,-1909.6,-5012,-7013.2
-5094,-3831.9,-9473.4,-7524.8,-6137.4,-1885.7,-4989.6,-7010.2
-5064.9,-3803.6,-9451.5,-7510.3,-6113.6,-1860.4,-4966.7,-7007.5
-5058.5,-3795.6,-9437.6,-7490.4,-6109.6,-1859.3,-4964.2,-6997.2
-5069.1,-3806.2,-9444.3,-7490.6,-6125.9,-1877.2,-4979.7,-6995.1
-5087.8,-3828.3,-9461.9,-7506.4,-6151.4,-1903.3,-5004.3,-7006.7
-5111.4,-3854.2,-9483.2,-7530,-6181.1,-1930.4,-5032.3,-7042.3
-5116.5,-3860,-9492.6,-7541,-6184.9,-1933.7,-5036.8,-7053.2
-5120.3,-3867,-9498.2,-7546.7,-6186,-1936.6,-5039.4,-7050.1
-5092.9,-3843.2,-9477.9,-7534.4,-6163.1,-1910.1,-5015.9,-7040.3
-5074.6,-3820.5,-9449.2,-7505.3,-6137.4,-1884.5,-4989.6,-7019.7
-5064.7,-3803.3,-9436.9,-7487.4,-6113.8,-1866,-4969.2,-6987.3
-5061.5,-3804.6,-9439.2,-7488.7,-6117.6,-1872.2,-4973.2,-6977.7
-5073.2,-3814.9,-9451.6,-7497.1,-6132.7,-1887.8,-4987.7,-6983.6
-5095.5,-3841.4,-9473.2,-7517.1,-6158.7,-1914.1,-5013.6,-6995.1
-5116.6,-3861.5,-9494.3,-7540.6,-6181.1,-1934.2,-5035.2,-7011
-5115.6,-3861,-9497.1,-7545.1,-6180.7,-1931.6,-5034.3,-7020.6
-5104.7,-3852.6,-9489.5,-7539.6,-6170.2,-1919.1,-5022.5,-7023.9
-5081.6,-3828.8,-9470.5,-7519.3,-6148.1,-1894.5,-4999.6,-7018.5
-5056.6,-3802.5,-9446.3,-7493.5,-6121,-1869.4,-4974.9,-7004.8
-5049.5,-3795.6,-9433.9,-7480.9,-6113.1,-1864.8,-4968,-6994.2
-5061.3,-3808,-9440.7,-7487.4,-6123.7,-1876.7,-4978.1,-6991.8
-5082,-3828.5,-9458.6,-7500.7,-6142.2,-1897,-4997.1,-6994.5
-5110.1,-3855.3,-9487.6,-7525.2,-6170.2,-1924.2,-5023.8,-7007.2
-5122.1,-3866.8,-9500.8,-7542.7,-6183.4,-1936.1,-5035.8,-7019.5
-5112.9,-3857.2,-9493.2,-7543.2,-6176.8,-1928.1,-5029.9,-7023.7
-5096.4,-3840.4,-9479.4,-7532.9,-6160.9,-1912.2,-5014.8,-7018.2
-5067.8,-3808.5,-9453.6,-7504.7,-6133.8,-1883.4,-4987.5,-7006.7
-5045.9,-3792.3,-9432.6,-7481.5,-6117.9,-1867.3,-4971.5,-6995.2
-5051.2,-3801.9,-9434.4,-7481.2,-6123.1,-1874,-4977,-6989.4
-5064.1,-3815.2,-9447.5,-7491.7,-6132.1,-1884.4,-4986.8,-6985.2
-5095.9,-3835.9,-9469.2,-7506.3,-6150.5,-1903.8,-5004.1,-6988.7
-5122.5,-3861.5,-9493.7,-7528.6,-6177.2,-1930.7,-5029.9,-7002.4
-5117.5,-3860.7,-9498.2,-7541.4,-6181.2,-1930.4,-5032.3,-7014.9
-5104.3,-3852,-9495.9,-7548.8,-6173,-1920,-5024.7,-7027
-5080.7,-3826.6,-9474,-7527.9,-6149.3,-1896.8,-5003.1,-7020.7
-5054.3,-3797.3,-9448.2,-7499.8,-6124.2,-1871.3,-4978.7,-7005.5
-5046.4,-3790.2,-9436.3,-7483.7,-6117.3,-1864.6,-4971,-6997.2
-5059.1,-3804.4,-9442.5,-7487.6,-6132.6,-1879.6,-4984.8,-7015
-5084.2,-3831,-9462.1,-7502.6,-6150.6,-1901.1,-5003.5,-7019.9
-5115.7,-3862.4,-9491.3,-7529.9,-6175.4,-1928.8,-5029.1,-7024.8
-5124.8,-3871.1,-9503.7,-7545.1,-6187.8,-1939.1,-5040.3,-7031.2
-5119,-3866.7,-9495,-7539.6,-6184.5,-1934.9,-5035.8,-7027.2
-5108.9,-3849.6,-9487,-7532.4,-6165.8,-1917.5,-5019.2,-7006.3
-5074.5,-3817.8,-9461.6,-7513.9,-6137.2,-1886.8,-4990.6,-6992.2
-5053.1,-3797.5,-9438.8,-7493.2,-6116.1,-1865.9,-4969.8,-6982.8
-5057.4,-3800,-9437.1,-7485.1,-6116,-1867.8,-4969.9,-6976.9
-5070.9,-3816.9,-9448,-7492.2,-6129.9,-1882.4,-4983.1,-6978.7
-5097.7,-3846.1,-9470.6,-7513.5,-6154.9,-1908.1,-5007.2,-6988.6
-5118.9,-3867.6,-9494.6,-7538.2,-6179,-1931,-5029.9,-7004.6
-5118.3,-3867,-9501.2,-7546,-6184.4,-1933.6,-5033.8,-7016.4
-5104.8,-3855.2,-9492.8,-7539.4,-6174.7,-1923.6,-5025.5,-7019
-5087.8,-3830.4,-9473.8,-7523.8,-6151.2,-1897.9,-5002.9,-7013.9
-5062.3,-3803.6,-9449.2,-7499.8,-6122.1,-1869.1,-4975.6,-6999.6
-5053,-3795.8,-9439.5,-7485.3,-6111,-1860.2,-4965.2,-6986.2
-5064.3,-3807,-9448.1,-7491.6,-6119.8,-1870.8,-4973.4,-6983.1
-5084.5,-3826.3,-9462.5,-7505.5,-6138.5,-1891,-4991.9,-6987.3
-5111,-3853.4,-9485.8,-7528.7,-6165.7,-1918.5,-5018.4,-6999.5
-5124.5,-3867.6,-9500.1,-7547,-6177.9,-1930.7,-5031.1,-7008.5
-5117.9,-3860,-9496.6,-7545.9,-6174.6,-1924.4,-5027.2,-7014
-5101.8,-3843.3,-9483.9,-7535.5,-6162,-1909.6,-5014.2,-7015
-5072.9,-3814.6,-9459.9,-7513.2,-6135.6,-1882.3,-4989.1,-7007
-5049.1,-3793.3,-9439.9,-7490.2,-6113.1,-1862,-4968.8,-6990.3
-5052.4,-3794.5,-9435.9,-7481,-6113,-1863.5,-4968,-6981.1
-5066.2,-3810.3,-9445.2,-7487.9,-6126.2,-1878.1,-4980.3,-6983.6
-5092.9,-3839.2,-9469.9,-7512.7,-6152.2,-1905.5,-5005.5,-6997.1
-5111.9,-3858.3,-9496.7,-7544.1,-6174.4,-1926.8,-5027.4,-7020.7
-5116.2,-3861.3,-9500.8,-7549.6,-6180.9,-1932.4,-5034.3,-7030.8
-5112.3,-3855,-9495.7,-7544.8,-6178.4,-1928,-5031.2,-7033
-5082,-3830.4,-9472.7,-7528.5,-6155.9,-1902.7,-5009.1,-7031.7
-5054.9,-3803.6,-9443.9,-7499.8,-6133.3,-1879.7,-4987.2,-7038.6
-5046.1,-3794.5,-9434.3,-7482.5,-6123,-1871.8,-4977.4,-7028.6
-5063.9,-3803.2,-9446.4,-7483.4,-6128.7,-1880.3,-4983.3,-7016.7
-5080.3,-3816.5,-9460.5,-7493.8,-6140.8,-1893.4,-4994.1,-7012.6
-5119.9,-3855.8,-9485.1,-7515.7,-6176,-1932.1,-5026.9,-7015.3
-5129.6,-3869.3,-9500.2,-7540.2,-6186.1,-1943.6,-5038.6,-7010.7
-5115.8,-3854.7,-9493.3,-7542.3,-6179,-1931.8,-5031.1,-7011.8
-5100.1,-3842.7,-9481.1,-7533.4,-6168.4,-1917.8,-5020.3,-7014.6
-5071.1,-3814.5,-9457.9,-7511.9,-6143,-1891.8,-4995.8,-7007.9
-5050.7,-3792.4,-9436.9,-7491.4,-6120.8,-1871.1,-4974.7,-6997.7
-5051.7,-3792.3,-9434.4,-7484.6,-6119.9,-1872.6,-4974.6,-6991.6
-5062.4,-3801.2,-9444.6,-7488.4,-6130.5,-1882.7,-4984.4,-6993.2
-5087.8,-3826.4,-9466.1,-7503.4,-6153.7,-1907.2,-5006.6,-7001.8
-5113.6,-3852.3,-9489.8,-7529.6,-6178.5,-1932.8,-5031.8,-7015.4
-5116.3,-3858.2,-9493.2,-7544.6,-6182.9,-1935.4,-5036.2,-7025.4
-5107.2,-3849.1,-9484.4,-7542.5,-6175.4,-1927.2,-5029.3,-7027.6
-5086,-3828.7,-9467.5,-7528.1,-6155.4,-1906.6,-5010.2,-7022
-5057.7,-3801.9,-9444.9,-7504.5,-6130.2,-1880.1,-4985,-7009.9
-5045,-3788.7,-9431.6,-7486.7,-6116,-1867.4,-4971.2,-6996.9
-5056.9,-3798.7,-9438.1,-7489.9,-6123.8,-1877.4,-4978.7,-6992.4
-5074.3,-3814.9,-9450.7,-7502.6,-6137.5,-1892.9,-4992.6,-6990.4
-5105.5,-3846.8,-9476,-7524.8,-6168.7,-1924,-5021.8,-7000.7
-5114.3,-3856.8,-9488,-7541.1,-6181.6,-1934.3,-5033.2,-7014.7
-5112.4,-3854.5,-9490.5,-7542.5,-6179.4,-1931.9,-5032.2,-7021.6
-5090.9,-3835,-9478.7,-7533.7,-6160.5,-1912.8,-5015,-7016.3
-5071.8,-3814.2,-9459.6,-7514.8,-6140.8,-1892.7,-4995.5,-7006.9
-5046.4,-3789.7,-9435.5,-7490.9,-6118.4,-1869.7,-4972.5,-6996
-5045.9,-3788.8,-9431.9,-7485.3,-6117.3,-1869.4,-4970.8,-6991.4
-5058.7,-3803.2,-9446.1,-7500.4,-6130.6,-1882.4,-4983.6,-7000.6
-5082,-3826.9,-9463.5,-7510.3,-6149.3,-1903.4,-5003.3,-7006.5
-5105.9,-3855.7,-9487.5,-7532.5,-6176.6,-1931.4,-5030,-7018.5
-5110,-3857.7,-9493.4,-7543.1,-6183.1,-1936.4,-5036,-7032.2
-5110.4,-3851.3,-9489,-7538.7,-6182.2,-1933.1,-5034.7,-7055.7
-5092.5,-3834.9,-9474.4,-7525.5,-6165.1,-1915.5,-5018.7,-7053.2
-5068.2,-3809.7,-9451.9,-7504.1,-6139.3,-1889.9,-4993.5,-7034.3
-5051.5,-3792.8,-9432.4,-7483.1,-6122.1,-1872.9,-4975.5,-7015.4
-5065.8,-3805.2,-9434.2,-7476,-6131.3,-1883.7,-4982.9,-7000.7
-5081.5,-3819.6,-9451.9,-7487.3,-6141.4,-1897.3,-4995,-6983.8
-5103.8,-3844.5,-9479.2,-7514,-6167.1,-1922.7,-5019.8,-6990
-5114.7,-3859.7,-9497.5,-7537.5,-6183.6,-1936.7,-5034.7,-7007.3
-5113.2,-3857.5,-9499.4,-7544,-6181.5,-1933.5,-5033.1,-7016.7
-5098.5,-3843.1,-9488.3,-7536.1,-6171.1,-1923.1,-5023.4,-7019.3
-5076,-3818.4,-9467.3,-7517.2,-6147.1,-1898.2,-4999.6,-7014
-5052.3,-3793.6,-9445.2,-7493.6,-6121.4,-1871,-4973.7,-7001.8
-5047.2,-3790.9,-9438.3,-7482.5,-6118.3,-1868.3,-4970,-6992.2
-5059.8,-3801.5,-9445.3,-7487.7,-6126.6,-1880.8,-4980.5,-6990.2
-5083.6,-3825.6,-9461.6,-7503.8,-6147.6,-1903.9,-5002,-6995.4
-5111.8,-3851.2,-9484.2,-7528.4,-6171.7,-1928,-5025.3,-7007.2
-5123.3,-3861,-9498.5,-7544.7,-6181.8,-1937.2,-5034.9,-7017
-5108.2,-3851.7,-9494.7,-7542.6,-6176.5,-1930,-5029,-7021
-5091.9,-3830.2,-9481.6,-7529,-6160.5,-1912,-5012.5,-7018.2
-5063.8,-3800.9,-9456.6,-7504.8,-6132.3,-1883.6,-4985.2,-7006.6
-5044.9,-3787.6,-9437,-7486.7,-6114.8,-1868.9,-4969.3,-6990.2
-5055,-3794.9,-9439.1,-7485.5,-6122,-1876.3,-4975.7,-6983.8
-5068.9,-3809.8,-9452,-7497.1,-6137,-1891.4,-4990,-6987.3
-5095.5,-3837,-9476.3,-7517.8,-6163.1,-1916.9,-5014.7,-6997.4
-5113.7,-3853.4,-9497,-7537.7,-6180.7,-1933.9,-5032.6,-7005.2
-5104.2,-3846.5,-9492.6,-7539.4,-6175,-1926.3,-5026.8,-7008.4
-5098.6,-3841.2,-9486.6,-7534.3,-6169.7,-1920.7,-5020.9,-7009.8
-5076.7,-3819.2,-9471.6,-7524.4,-6150.1,-1898.1,-5000.9,-7009.2
-5047.1,-3788.4,-9449.3,-7508.2,-6121.6,-1868.6,-4973.3,-7005.8
-5046.1,-3786.6,-9441.3,-7489.7,-6114.5,-1865.5,-4967.4,-6994.7
-5060.3,-3802.6,-9451.2,-7494.3,-6126.6,-1879.8,-4978.5,-6990.9
-5080.2,-3820.9,-9466.1,-7510,-6146.5,-1900.2,-4997.8,-6999.3
-5106.1,-3849.9,-9487.6,-7536,-6179.2,-1929.7,-5028.3,-7033
-5118.7,-3863.5,-9500.3,-7550.9,-6191.7,-1942.4,-5041.6,-7044.5
-5116.4,-3862.3,-9502.3,-7555.3,-6187.7,-1937,-5037.8,-7042.9
-5092.1,-3840.2,-9484.4,-7541.2,-6166.6,-1913.6,-5015.8,-7033.2
-5067.6,-3815.6,-9454.9,-7508.4,-6140,-1887.6,-4988.8,-7011.4
-5055.8,-3805.4,-9443.7,-7492.8,-6119.5,-1871,-4971.4,-6980.8
-5057.4,-3806.9,-9444.9,-7493.7,-6117.5,-1869.8,-4969.9,-6969.2
-5068.4,-3818.3,-9454,-7501.4,-6128.2,-1880.6,-4980,-6973
-5100.2,-3844.5,-9479.8,-7521,-6156,-1909.6,-5007.3,-6985.3
-5119.4,-3859.4,-9501.8,-7541.1,-6180.6,-1933.7,-5031.3,-7002
-5110.1,-3851.7,-9504,-7546.3,-6183.4,-1935.1,-5034.2,-7014.2
-5104.1,-3840.2,-9500,-7539.4,-6174,-1924,-5024.3,-7019.1
-5082.7,-3813.8,-9479.9,-7520.4,-6151.2,-1898.6,-5000.7,-7014.6
-5055.8,-3786.3,-9450.6,-7495.8,-6125.7,-1873.5,-4977.3,-7001.7
-5048.5,-3779.4,-9436.1,-7480,-6119.2,-1868.2,-4971.9,-6991.4
-5061.4,-3790.5,-9442.1,-7484.6,-6129.1,-1879.6,-4982.2,-6989.5
-5081.9,-3811.4,-9460,-7499.8,-6146.6,-1900,-5000,-6993.4
-5106.7,-3838.1,-9485.2,-7523,-6172.3,-1925.6,-5024.5,-7005.5
-5120.8,-3850.9,-9501.3,-7541.7,-6187.8,-1938.9,-5039.2,-7018.8
-5115.3,-3844.7,-9499.3,-7544.8,-6181.3,-1930.7,-5033.4,-7024.5
-5098.5,-3827.1,-9485.2,-7533,-6161.9,-1911.3,-5015.7,-7018.6
-5072.1,-3796.8,-9460.9,-7506.3,-6137.6,-1885.9,-4990.8,-7008.7
-5057.7,-3778.7,-9444.6,-7484.9,-6121.6,-1871.3,-4975,-6999.2
-5055,-3780.6,-9440.4,-7477.6,-6118.8,-1871.1,-4972.9,-6992.2
-5069.3,-3798.7,-9453.5,-7487.7,-6129.8,-1884.6,-4984.9,-6988.1
-5094.4,-3822.1,-9471.4,-7503.3,-6151.3,-1907.3,-5005.4,-6992.4
-5121.8,-3849.3,-9492.6,-7526.8,-6176.5,-1932.1,-5028.7,-7006.8
-5123.4,-3851,-9500.2,-7542.5,-6181.2,-1934.3,-5032.6,-7020.6
-5106,-3836,-9496.5,-7545.4,-6169,-1920.4,-5021.1,-7032.5
-5085.4,-3818.1,-9478.9,-7522.5,-6149.4,-1901.4,-5002.7,-7027.5
-5060.9,-3793,-9453.7,-7495.7,-6124.2,-1876.2,-4977.9,-7014.7
-5049.7,-3783.8,-9438.7,-7480.1,-6113.8,-1866.2,-4967,-7007.5
-5059.6,-3793.4,-9439.8,-7479.3,-6126.5,-1879.1,-4978.3,-7024.3
-5088.4,-3819.6,-9462.3,-7493.9,-6147.9,-1902,-4999.7,-7028.6
-5121.9,-3852.1,-9493.8,-7522.9,-6178.3,-1931.4,-5029.4,-7032.3
-5128.3,-3860.4,-9505.7,-7541.3,-6189.1,-1939,-5038.8,-7037.2
-5125.4,-3854,-9498.2,-7533.1,-6184.3,-1934.5,-5033.8,-7032.5
-5112.6,-3838.1,-9492.5,-7526.1,-6167.8,-1919.7,-5020.3,-7013.6
-5075.4,-3805.3,-9467.4,-7509.4,-6140.5,-1889.6,-4993.2,-7001.3
-5053.7,-3781.2,-9443,-7485.5,-6115.2,-1863.2,-4968.5,-6990.6
-5067.1,-3787.5,-9445.2,-7478,-6115.5,-1865.5,-4969.3,-6983.8
-5076.2,-3803.7,-9455.4,-7487,-6128.1,-1879.5,-4981.2,-6985
-5101.5,-3828.7,-9477.3,-7506.7,-6152.2,-1905.7,-5005.1,-6994.1
-5126,-3851,-9502.9,-7530.6,-6177.4,-1929.5,-5029,-7008.7
-5125.4,-3852.7,-9509.4,-7540.5,-6182.1,-1931.3,-5031.9,-7018.9
-5115.6,-3843.1,-9502.8,-7536.7,-6171.6,-1921.9,-5023.6,-7020.8
-5089.5,-3822.1,-9479.3,-7521.9,-6150.5,-1900.5,-5004,-7016.3
-5065.7,-3792.8,-9452.1,-7497.1,-6122.2,-1871.9,-4976.3,-7003.6
-5058.5,-3783,-9440.7,-7479.8,-6110,-1862.5,-4965.1,-6990.4
-5071.8,-3794.8,-9445.8,-7481.5,-6119.2,-1873,-4973.3,-6986.4
-5090.1,-3815.7,-9461,-7494.3,-6137.6,-1891.8,-4991,-6989.8
-5116.4,-3843.9,-9488.7,-7519.2,-6164.3,-1919,-5017.4,-7001.3
-5130.7,-3855.6,-9506.8,-7538.5,-6178,-1932.4,-5030.8,-7011.1
-5123.4,-3849.5,-9506.5,-7540.8,-6175.5,-1926.9,-5027.4,-7016.7
-5102.3,-3828.1,-9491.8,-7529.7,-6158.4,-1907.5,-5010,-7015.7
-5070.6,-3798.6,-9464.9,-7505.3,-6130.3,-1878.6,-4982.8,-7004.7
-5053.2,-3783,-9448,-7487,-6111.4,-1861.9,-4965.5,-6987.9
-5059,-3788,-9446.4,-7483.1,-6114.3,-1866.8,-4967.3,-6979.8
-5066.8,-3796,-9449,-7488.4,-6121.5,-1873.3,-4973,-6980.2
-5097.2,-3827.7,-9472.4,-7512.2,-6149.2,-1900.9,-4999.6,-6991
-5116.3,-3847.8,-9497.1,-7546.1,-6171.7,-1921.6,-5020.8,-7014.4
-5121.6,-3851.4,-9501.3,-7551.2,-6177.5,-1926.9,-5027,-7024.3
-5111.9,-3842.8,-9493.4,-7543.5,-6169.8,-1918.4,-5019.9,-7024
-5088,-3823.2,-9476.5,-7529.5,-6153.5,-1900.2,-5003.5,-7023.5
-5066.2,-3796.5,-9452.6,-7506.3,-6133.8,-1878.2,-4982.7,-7033.5
-5060.6,-3787.1,-9441.9,-7488.3,-6118.4,-1864.9,-4968.1,-7021.9
-5073.3,-3802.1,-9450.3,-7491.5,-6126.5,-1876.7,-4977.4,-7009.8
-5087.4,-3814.5,-9462.5,-7502.5,-6140.7,-1890.5,-4990.1,-7007.2
-5121.7,-3847.5,-9486.1,-7516.8,-6172,-1924.2,-5019.9,-7008.5
-5135.5,-3858.7,-9507,-7538.6,-6183.1,-1935.6,-5032.2,-7003.4
-5123.3,-3850.4,-9501.3,-7543.7,-6175.5,-1926.7,-5026.1,-7005.3
-5106.9,-3836.5,-9490.6,-7540.2,-6165.6,-1914.9,-5017,-7012.1
-5082,-3807.4,-9468.8,-7516.7,-6140.5,-1889.8,-4993,-7007.5
-5056.7,-3784.1,-9444.6,-7490.5,-6114.8,-1864.5,-4968.5,-6995.7
-5059.4,-3787.9,-9441.9,-7482.9,-6114.8,-1866.5,-4969.2,-6987.2
-5068.4,-3799.6,-9451.4,-7491.5,-6128.4,-1877.7,-4980.3,-6988.1
-5092.4,-3822.3,-9471.2,-7506.2,-6153.6,-1901.8,-5003.7,-6995.2
-5119.4,-3847.5,-9496.4,-7529.6,-6177,-1926.8,-5028.3,-7008.6
-5123,-3850.5,-9503,-7540.5,-6181,-1930.1,-5032.3,-7018.3
-5114.9,-3845.3,-9498.2,-7538.9,-6173.8,-1922.5,-5026.1,-7020.9
-5093.8,-3824.7,-9480.1,-7524.8,-6155.2,-1902.3,-5008.3,-7014.5
-5067.7,-3798.1,-9452.4,-7502.4,-6128.9,-1874.9,-4982.7,-7002.2
-5057.7,-3785.4,-9437.4,-7484.5,-6114.7,-1862.5,-4969.1,-6990.5
-5068,-3794.7,-9443.2,-7485.6,-6120.2,-1871.4,-4975.3,-6985.7
-5082,-3809.7,-9457.7,-7498.2,-6132.6,-1886.3,-4988.3,-6983.9
-5109.7,-3839.2,-9483.3,-7519.8,-6162.1,-1915.7,-5016.2,-6993.7
-5124.4,-3857.2,-9501.5,-7540.3,-6182.5,-1934.2,-5035.9,-7008.9
-5125.4,-3851.5,-9504.8,-7543.4,-6178.7,-1927.9,-5032.2,-7016.5
-5109,-3832.2,-9496.3,-7533.7,-6160.7,-1909.3,-5016.1,-7010.2
-5077.2,-3803,-9468.4,-7511.9,-6134,-1881.7,-4989.8,-6998.1
-5061.7,-3787.6,-9447.5,-7492.5,-6118.4,-1867.3,-4974.7,-6987.6
-5063.8,-3789.7,-9445.3,-7489.6,-6117.6,-1868.2,-4973.7,-6984.7
-5066,-3794.6,-9455.1,-7501.1,-6121.2,-1871.6,-4977.1,-6992.6
-5093.9,-3821.6,-9475.8,-7508.1,-6142.3,-1896.8,-4999.9,-6996.8
-5121.2,-3848.4,-9499.5,-7531.3,-6170.7,-1924,-5026.3,-7009.7
-5126.2,-3853.4,-9503.4,-7541.4,-6180.3,-1931.6,-5035.1,-7023.7
-5117.7,-3844.4,-9496.2,-7537,-6178.3,-1926.9,-5032.6,-7049.2
-5104.3,-3834.9,-9484.3,-7526.4,-6163,-1911.7,-5018.1,-7047.6
-5078.4,-3807.2,-9459.6,-7506.2,-6136.6,-1885.3,-4991.9,-7028.5
-5062,-3787.5,-9441.1,-7484.5,-6120.3,-1868.6,-4974.3,-7010.3
-5072.5,-3795.8,-9442,-7475,-6126.3,-1877.1,-4979.1,-6996.2
-5090.4,-3812.3,-9462.4,-7488.6,-6136.3,-1890.7,-4991.2,-6980.1
-5113.8,-3840.1,-9489.9,-7515.9,-6159.4,-1914.3,-5014.3,-6986.5
-5129.2,-3860.2,-9509.3,-7540.5,-6177.8,-1930.4,-5031.9,-7003.6
-5121.9,-3857.3,-9504.7,-7545.4,-6173.2,-1923.1,-5027.8,-7011.1
-5113.2,-3849.2,-9493.5,-7540.2,-6164,-1912.9,-5018.5,-7013.3
-5089.7,-3821.6,-9470,-7521.8,-6141.3,-1890,-4996.2,-7008.3
-5064.2,-3790.8,-9444.3,-7495.3,-6119.4,-1867.1,-4973.6,-6997.9
-5058.9,-3782.7,-9436.2,-7477.5,-6119.1,-1866.5,-4971.8,-6990.6
-5071,-3792.2,-9446.7,-7478.8,-6129.4,-1879.3,-4983.5,-6990
-5095,-3815.3,-9470.1,-7493.6,-6150.6,-1902.2,-5005.2,-6995.7
-5120,-3841.1,-9495.7,-7516.6,-6173.4,-1924.9,-5028,-7006.7
-5132.3,-3852,-9507.9,-7531.3,-6182.9,-1934.2,-5038.1,-7016.2
-5120.1,-3841.8,-9499.5,-7531.5,-6176.6,-1927.4,-5031.3,-7021.3
-5105,-3823,-9483.5,-7521.1,-6160.2,-1910.3,-5015.3,-7019.6
-5081.8,-3793.6,-9460.3,-7500.5,-6130.3,-1879.7,-4985.9,-7007
-5062.7,-3778,-9442.4,-7481.7,-6112.8,-1862.9,-4969.1,-6989.2
-5068.3,-3789.3,-9444.4,-7478.6,-6119.2,-1869.9,-4975.2,-6981.4
-5081.4,-3803,-9457.5,-7488.5,-6134,-1885.2,-4989.4,-6984.1
-5110.7,-3830.8,-9487.3,-7509.5,-6161.1,-1913.9,-5016.2,-6994.3
-5126.5,-3849,-9507.7,-7533.3,-6177.4,-1930.5,-5033.2,-7003.3
-5120.1,-3845.1,-9501.4,-7537.2,-6174.2,-1926.4,-5030.2,-7007.9
-5110.1,-3834.2,-9488.6,-7529.6,-6167.4,-1917.3,-5023.2,-7010.8
-5085.7,-3810.5,-9469.5,-7517,-6147.6,-1894.2,-5002.3,-7010.4
-5059.8,-3785.1,-9451.1,-7503.8,-6123.7,-1870,-4978.5,-7009.5
-5055.7,-3779.7,-9439.9,-7485,-6115.8,-1864.5,-4971.7,-6999
-5068.9,-3793.3,-9447.1,-7487.6,-6124.7,-1874.9,-4980.4,-6994.3
-5085.9,-3813.1,-9462.6,-7500.1,-6142.1,-1893.6,-4997.8,-7001.2
-5118.7,-3846.7,-9491.1,-7526.3,-6179.2,-1929.8,-5033,-7035.8
-5133.5,-3856.4,-9505.4,-7541,-6189.4,-1939,-5042.7,-7049.3
-5128.4,-3852,-9503.6,-7541.4,-6184.2,-1933.4,-5037.9,-7046.6
-5107.7,-3833.3,-9486.9,-7528.9,-6167.6,-1914.1,-5020.1,-7038.7
-5086.7,-3809.5,-9459.7,-7500.1,-6143.1,-1889.6,-4995,-7018.1
-5070.7,-3791.3,-9448.2,-7481.5,-6120.4,-1870.6,-4975.7,-6985.5
-5068.1,-3789.7,-9447.9,-7479.9,-6119.5,-1870.8,-4975.4,-6972.9
-5079.3,-3802.3,-9456.3,-7488.6,-6132.7,-1883.8,-4988.4,-6977
-5106,-3831.2,-9477.9,-7509.6,-6158.1,-1910.5,-5014,-6988.2
-5126.7,-3851.6,-9499.3,-7532.4,-6181,-1932.4,-5036.5,-7003.7
-5125,-3850.7,-9503.7,-7541,-6181.9,-1931.7,-5037.2,-7014
-5114.9,-3840.1,-9496.9,-7535.4,-6174.3,-1923.2,-5029,-7018
-5092.2,-3814.5,-9476.1,-7515.8,-6153.3,-1900.7,-5007.5,-7014.3
-5066,-3787.6,-9452.4,-7492.6,-6125.3,-1873.8,-4981.7,-7001.6
-5054.3,-3780.6,-9439.9,-7479.1,-6114.7,-1864.7,-4972.1,-6989.7
-5065.5,-3792.9,-9448.8,-7481.3,-6123.4,-1875.1,-4980.4,-6986.4
-5085.9,-3812.3,-9467.7,-7491.8,-6140.4,-1894,-4997.6,-6989.3
-5112.7,-3841.3,-9492.2,-7515.9,-6168.7,-1921.6,-5024.6,-7001.4
-5123.9,-3857,-9505.2,-7535.1,-6185.6,-1937.3,-5040.6,-7014.2
-5121.7,-3846.4,-9502.5,-7538.8,-6179.3,-1928.7,-5034.4,-7019.6
-5108.8,-3830.8,-9488.8,-7529.9,-6163,-1912.9,-5019.6,-7013.7
-5076.8,-3801.4,-9461,-7505.1,-6137.6,-1886.2,-4994.5,-7003.5
-5061.1,-3785.7,-9440.6,-7485.2,-6120.5,-1869.7,-4977.4,-6994.3
-5059,-3784,-9433.8,-7477.5,-6116.5,-1867.5,-4974.1,-6986.9
-5075.2,-3798.9,-9445.6,-7486.2,-6128.5,-1882.5,-4987.1,-6982.7
-5094.7,-3818.3,-9461.6,-7501.3,-6146.9,-1901.4,-5004.4,-6987.7
-5128,-3854.9,-9491.4,-7527.6,-6178.9,-1935.1,-5035.8,-7005.3
-5123.9,-3851.4,-9496,-7539.4,-6179.1,-1932.6,-5035.3,-7019.8
-5113,-3843.3,-9498.4,-7547.6,-6173.1,-1923.9,-5029.9,-7034
-5084.9,-3815.7,-9475.4,-7522.4,-6148.9,-1896.7,-5006.1,-7026.7
-5062.7,-3793.1,-9452.6,-7496.4,-6125.4,-1872.2,-4981.9,-7010.9
-5053,-3784.7,-9440,-7481.5,-6117.2,-1864.8,-4973.2,-7001.9
-5063.5,-3793.1,-9441.5,-7479.9,-6128.9,-1875.3,-4982.7,-7017.2
-5090.1,-3817.8,-9460.4,-7493,-6148.1,-1898,-5002.3,-7020.3
-5122.8,-3850.9,-9492,-7524.5,-6177.9,-1929.8,-5032,-7026.2
-5133.6,-3860.4,-9506.5,-7542.9,-6188.9,-1939.3,-5041.8,-7032.7
-5126.7,-3854.7,-9500.6,-7538.2,-6183.8,-1933.6,-5036.2,-7028.3
-5113.2,-3840,-9494.2,-7531.1,-6166.4,-1918.4,-5022,-7007.8
-5081.2,-3807.1,-9470.1,-7513.6,-6138.4,-1888.5,-4995,-6995.5
-5061.3,-3785.9,-9448.3,-7491.5,-6115.8,-1865.8,-4973.6,-6986.2
-5060.6,-3786.3,-9443.8,-7481.4,-6112.8,-1864.2,-4971,-6978.7
-5075.7,-3803,-9455.6,-7489,-6128.1,-1880.4,-4985.5,-6979.5
-5100.3,-3829.4,-9478,-7510.3,-6151.9,-1905.2,-5008.7,-6987.7
-5124.9,-3854.7,-9504.9,-7536.1,-6176,-1928.9,-5032.1,-7001.8
-5126.7,-3852.5,-9513.5,-7542.9,-6181.2,-1930.9,-5035.9,-7012.5
-5118.4,-3843.4,-9506.5,-7539.9,-6172,-1921.9,-5028.7,-7014
-5097.2,-3821.6,-9483.9,-7526.2,-6151.1,-1899.8,-5009.1,-7009.2
-5069.7,-3793.7,-9455.8,-7500.3,-6123.6,-1872.3,-4983,-6996.3
-5057.1,-3782.8,-9440.7,-7481.4,-6109.6,-1859.8,-4969.4,-6981.9
-5070,-3795.1,-9450.3,-7483.7,-6120.2,-1871.4,-4978.7,-6977.7
-5089.3,-3815.5,-9470.2,-7495.9,-6137,-1890.4,-4995.6,-6981.3
-5117.6,-3844.2,-9495.7,-7521.1,-6161.8,-1916.6,-5020.7,-6992.1
-5133.7,-3859.6,-9511.7,-7541.6,-6177,-1931.8,-5036.7,-7000.5
-5129.8,-3854.2,-9510.1,-7543.5,-6177.8,-1929.6,-5035.7,-7006.6
-5114.1,-3837.7,-9497.1,-7533.4,-6164.6,-1913.4,-5021.7,-7008
-5082.8,-3810.4,-9472.4,-7511.3,-6137.2,-1885.3,-4995.4,-6999.3
-5052.4,-3784.2,-9448.2,-7486.2,-6108.3,-1858.7,-4969,-6981
-5065.4,-3785.7,-9448,-7477.2,-6107.8,-1861.1,-4968.8,-6970.8
-5079.4,-3796,-9457.7,-7481.7,-6118,-1871.9,-4977.5,-6971.2
-5103.7,-3824.4,-9482.1,-7507.7,-6145.6,-1899.9,-5003,-6984.2
-5126.8,-3849.1,-9510.7,-7543.6,-6171.4,-1923.7,-5027.1,-7008.6
-5132.5,-3854.2,-9517,-7549.3,-6179,-1928.4,-5034.2,-7018.3
-5122.5,-3844,-9509.9,-7542.9,-6171.8,-1918.7,-5027,-7018.7
-5095.6,-3820.1,-9489.8,-7524.3,-6152.8,-1897.1,-5007.2,-7016.4
-5069.9,-3799.1,-9464.3,-7501.9,-6132.3,-1873.9,-4985.3,-7025.5
-5067,-3794.8,-9457.1,-7487.4,-6119.3,-1864,-4973.4,-7014.3
-5081.5,-3808.4,-9465.6,-7490.6,-6124.8,-1872.8,-4979.4,-7002.4
-5094,-3819.7,-9470.3,-7497.8,-6135.2,-1883.6,-4988.9,-6996.8
-5131.9,-3848.6,-9493.7,-7511.7,-6170.5,-1920.1,-5022.2,-6998.7
-5145.7,-3860.5,-9517.5,-7531.3,-6187.7,-1939.1,-5041.3,-6994.2
-5126.3,-3846,-9515,-7536.6,-6180.7,-1930.2,-5035,-6997.3
-5112.5,-3830.4,-9504.5,-7529.9,-6168.8,-1917.7,-5024.6,-7002.8
-5085.3,-3804.1,-9479,-7509,-6142.2,-1889.9,-4998.6,-6997.4
-5067.2,-3782.4,-9454.5,-7484.7,-6117.5,-1865.7,-4974.5,-6985.3
-5071.8,-3782.6,-9449.5,-7474,-6114.5,-1864.6,-4971.6,-6977.6
-5083.9,-3796,-9458.9,-7479.2,-6126.2,-1876.3,-4982.1,-6977.8
-5109.8,-3822.1,-9482.2,-7497.7,-6153,-1902.8,-5006.9,-6986.1
-5129.8,-3843,-9506.1,-7523,-6175.5,-1925.8,-5029.6,-6998.7
-5135.1,-3847.9,-9515.7,-7537,-6183.6,-1933.8,-5038.5,-7009.6
-5125.7,-3839.2,-9510.2,-7534.9,-6174.8,-1924.5,-5031,-7013.8
-5105.6,-3821.6,-9493.4,-7521.4,-6153.1,-1903.3,-5011.3,-7008.9
-5076.7,-3794.2,-9466.1,-7497.7,-6124.3,-1874.2,-4983,-6996.5
-5065.7,-3782.4,-9452.1,-7481.6,-6111.9,-1862.9,-4970.6,-6984.9
-5072.1,-3788.5,-9455.5,-7481.3,-6116.7,-1870,-4975.4,-6980.5
-5087.7,-3806.8,-9468.9,-7490.7,-6133.2,-1889.4,-4992.6,-6980
-5113.9,-3833.1,-9491,-7509.5,-6159.8,-1916.6,-5017.8,-6990.3
-5132.9,-3851.4,-9509.2,-7530.3,-6178.4,-1933.8,-5035.4,-7005.4
-5133.2,-3851.6,-9513.4,-7537.8,-6178.6,-1931.5,-5035.6,-7013.8
-5115.6,-3836.1,-9503.6,-7530.1,-6161.7,-1913.4,-5019.7,-7009.2
-5080.3,-3803.2,-9471.9,-7503.1,-6130.1,-1880.4,-4988.6,-6995.3
-5065,-3792.9,-9453.6,-7486.5,-6117,-1868.4,-4975.5,-6985.4
-5069.4,-3788.1,-9452.2,-7482.6,-6111.3,-1863.6,-4969.5,-6981.8
-5077.3,-3791.8,-9465.1,-7491.7,-6117.4,-1870.6,-4975.2,-6988.8
-5103,-3819.8,-9484,-7502.2,-6142.8,-1898.4,-5000.2,-6994.8
-5135.1,-3849,-9507.5,-7525.9,-6170,-1924,-5025,-7006.7
-5135.5,-3856.2,-9511.8,-7539.2,-6178.1,-1929.5,-5032.5,-7020.2
-5125,-3847.6,-9500.6,-7535.3,-6175.2,-1923.4,-5029.4,-7043
-5116.3,-3836.5,-9491.1,-7526.6,-6163.2,-1911.6,-5018.2,-7041.2
-5089,-3811,-9468.2,-7507.8,-6137.4,-1886.1,-4993.6,-7023.2
-5069.7,-3789.4,-9447.3,-7485.1,-6117.3,-1865.7,-4972.9,-7003.7
-5083,-3798.8,-9449.5,-7473.2,-6124.1,-1874.8,-4978.2,-6986.4
-5100,-3816.4,-9470,-7486.9,-6135.5,-1889.4,-4990.5,-6968.6
-5122,-3839.7,-9494.2,-7513.8,-6159.7,-1913.9,-5013.7,-6974
-5137.5,-3855,-9511.8,-7535.9,-6179.8,-1931.5,-5032.2,-6991.5
-5131.2,-3849.8,-9510.8,-7539.3,-6179.1,-1928.2,-5032,-7001.6
-5119.8,-3839.2,-9502.1,-7532.5,-6171.7,-1919.1,-5025.3,-7005.2
-5093.5,-3811.1,-9479.9,-7512.2,-6148.9,-1894.6,-5002.8,-7000.1
-5068.3,-3782.4,-9454,-7484.4,-6125,-1870.5,-4979,-6989.8
-5067.4,-3781.3,-9445.6,-7469.1,-6122.3,-1869.7,-4975.8,-6982.6
-5080.3,-3792.9,-9455.2,-7473.4,-6128.4,-1879.6,-4983.1,-6979.8
-5098.6,-3816.6,-9473.8,-7488.2,-6147.5,-1901,-5002.5,-6983.9
-5124.6,-3842.3,-9498.9,-7510.6,-6173.4,-1926,-5027.6,-6993.7
-5135.4,-3853.5,-9511.9,-7527.2,-6187,-1937.8,-5040.6,-7002.8
-5128.7,-3846.1,-9508.7,-7529.7,-6182.1,-1930.7,-5035.3,-7007
-5111.7,-3826.9,-9494.9,-7520.2,-6164.5,-1912.4,-5018.3,-7005.2
-5083,-3795,-9470.2,-7497.6,-6135.3,-1882.9,-4990.6,-6994.5
-5068.9,-3781.3,-9455.5,-7479.4,-6115.9,-1865.6,-4972.3,-6976.8
-5075.2,-3786.6,-9455.8,-7472.6,-6122.1,-1871.4,-4976.3,-6968.7
-5093.5,-3804.8,-9466.5,-7478.6,-6138.2,-1887.6,-4991.6,-6970.9
-5123.7,-3833.3,-9489.7,-7500.9,-6165.7,-1915.2,-5018.7,-6981.2
-5139,-3846.6,-9505.4,-7520.6,-6178,-1926.8,-5031.8,-6987.8
-5134.9,-3847.7,-9504.9,-7526.6,-6177.3,-1924.8,-5031,-6993.7
-5124.4,-3841.4,-9498.2,-7520.5,-6171.2,-1917.7,-5024.7,-6996.6
-5099.1,-3816.7,-9483.3,-7509.3,-6153.3,-1895.7,-5005.5,-6996.9
-5074.2,-3792.3,-9466.5,-7495.4,-6129.5,-1871.5,-4982.7,-6995.6
-5065,-3780.8,-9453,-7474.2,-6115,-1860.1,-4970.4,-6984.5
-5079.7,-3794.3,-9460.3,-7473.9,-6124.3,-1872.6,-4979.6,-6979
-5100.5,-3817.7,-9477.2,-7490.5,-6145,-1894.9,-4999.4,-6987
-5129.6,-3848.1,-9500.7,-7516.6,-6178.6,-1927.6,-5031.4,-7021.1
-5140.9,-3856.8,-9512.3,-7532.2,-6188.7,-1936.7,-5041.7,-7033.9
-5137,-3855.9,-9514,-7537.6,-6188.6,-1936.6,-5042.8,-7032.8
-5115.9,-3833.7,-9497.7,-7525.4,-6171.3,-1915.5,-5024.3,-7024.7
-5099.2,-3807.3,-9472.2,-7493.6,-6145.2,-1888.2,-4996.8,-7004
-5080.3,-3791.1,-9456.6,-7473.9,-6121.9,-1868,-4977,-6971.6
-5079.2,-3792,-9456.4,-7472.9,-6121.1,-1868,-4976.6,-6960.1
-5091.5,-3804.2,-9466.1,-7482.4,-6132.3,-1879.3,-4987.5,-6964
-5118.8,-3830.3,-9488.9,-7501.7,-6156.4,-1905.1,-5011.6,-6974
-5139.4,-3853.7,-9509.9,-7524.7,-6179.2,-1927.9,-5033.2,-6989.3
-5139.4,-3855.5,-9512.8,-7536.6,-6182.7,-1930.4,-5035.7,-7000.5
-5130,-3842.9,-9503.5,-7532.2,-6172,-1917.4,-5024,-7003.6
-5105.6,-3819.5,-9482.3,-7514.4,-6152.6,-1895.5,-5004.1,-7000.1
-5078.9,-3794.3,-9460.8,-7490.4,-6125.7,-1869.1,-4979.1,-6988.9
-5069.4,-3784.9,-9454.6,-7473,-6113.7,-1858.8,-4967.3,-6978.4
-5079.7,-3796.1,-9462,-7474.3,-6122,-1869.4,-4975.7,-6975.9
-5099.2,-3814.8,-9474.9,-7488.8,-6139.8,-1888.7,-4993.1,-6979.1
-5128,-3843.2,-9498.7,-7514.5,-6167.8,-1916.3,-5019.8,-6990.8
-5141.9,-3857.1,-9513.3,-7534.4,-6184.9,-1931.6,-5035.2,-7003.9
-5132.4,-3850.3,-9508.9,-7537.6,-6179.6,-1925,-5030.4,-7010
-5116.1,-3836.4,-9495,-7529,-6161.8,-1906.9,-5013.6,-7004.7
-5089.7,-3811,-9470.2,-7505.7,-6135.2,-1877.3,-4986.7,-6993.6
-5071.2,-3793.7,-9449,-7484.1,-6114.1,-1856.4,-4966.1,-6981.2
-5076.5,-3795.4,-9450.1,-7478.5,-6113.6,-1858.9,-4966.5,-6973.7
-5090.2,-3801.5,-9466.1,-7482.8,-6124,-1871.2,-4977.6,-6968.5
-5112.2,-3821.8,-9492,-7497.5,-6149.3,-1897.9,-5001.8,-6974.5
-5132.5,-3842.8,-9516.5,-7519.1,-6174.2,-1922.7,-5025,-6989.4
-5140.1,-3848.4,-9526.4,-7535.3,-6186.5,-1933,-5036,-7005.8
-5125.4,-3833.1,-9517.9,-7537.7,-6175.8,-1920,-5026.3,-7020.6
-5105.8,-3812.6,-9492.7,-7515.1,-6154,-1897.1,-5005.6,-7016
-5086.5,-3792.2,-9467.5,-7491.3,-6133.2,-1875.4,-4984.1,-7002.8
-5071.4,-3778.6,-9450.1,-7475.7,-6120.8,-1863,-4971.3,-6995.1
-5080.3,-3784.7,-9452.5,-7472.8,-6133.3,-1875.9,-4983.4,-7011.7
-5106.3,-3804.7,-9472.5,-7486,-6153.9,-1898.3,-5004.3,-7016.2
-5137,-3834,-9500.6,-7511.9,-6180.1,-1924.4,-5029.8,-7019.9
-5144.2,-3842.7,-9511.6,-7527.8,-6189,-1931.3,-5037.3,-7024.5
-5147.4,-3846.5,-9509.9,-7525.3,-6191.4,-1933.6,-5038.3,-7021.6
-5135,-3833.7,-9503.2,-7519.9,-6174.1,-1917.4,-5023,-7003.4
-5108,-3798,-9480.1,-7499,-6144.1,-1886.7,-4993.8,-6989.7
-5081,-3773.4,-9457.7,-7474.2,-6121.6,-1865.6,-4972.5,-6980.2
-5084.9,-3775.7,-9455.9,-7464.8,-6119.4,-1866.5,-4971.2,-6974.6
-5096.8,-3791.8,-9464.3,-7472.4,-6130.7,-1878.8,-4982.4,-6976.5
-5125.5,-3819.6,-9485.7,-7492.5,-6153.4,-1902.5,-5005,-6985.3
-5147.9,-3842.1,-9510.3,-7515,-6177.6,-1925.3,-5027.6,-7000.4
-5149.7,-3844.3,-9519.8,-7522.1,-6185.5,-1930.1,-5034.3,-7012.6
-5138.3,-3836.1,-9514.9,-7520.2,-6175.9,-1921.2,-5027,-7016.3
-5114.1,-3815.4,-9494.5,-7507.4,-6154.7,-1899.6,-5007.3,-7012.4
-5084.8,-3788.2,-9467.3,-7483.9,-6127.4,-1872.6,-4981.3,-6999.9
-5074.4,-3776.5,-9453.5,-7466.5,-6112.9,-1860.5,-4968.1,-6986.1
-5086.5,-3786.2,-9459.3,-7468.2,-6120.7,-1869.1,-4974.9,-6980.6
-5105.4,-3803.9,-9474.9,-7481.7,-6136.5,-1886,-4989.9,-6982.4
-5132.7,-3831.2,-9502.4,-7508.1,-6163,-1914.6,-5016.1,-6992.5
-5148.5,-3845.2,-9520.3,-7528.6,-6178.8,-1930,-5032.1,-7000.9
-5142.5,-3841.3,-9517.9,-7531.1,-6177.2,-1924.8,-5029.2,-7006.7
-5128.4,-3825.3,-9505.7,-7522.5,-6165.3,-1910.8,-5016.9,-7007.7
-5100.6,-3798,-9483.4,-7501.8,-6139.3,-1883.4,-4991,-6999.4
-5076.5,-3774.6,-9462.3,-7478.5,-6114.8,-1859.4,-4968.2,-6981.4
-5076.9,-3773.2,-9455.8,-7466.5,-6112.8,-1859.1,-4966,-6970.7
-5090.8,-3788.3,-9464.7,-7471.9,-6124.7,-1872.8,-4977.2,-6972.1
-5117.7,-3816.1,-9490.5,-7496,-6149.1,-1899.9,-5001.8,-6983.9
-5138.5,-3838.3,-9519,-7530.8,-6172.2,-1922.2,-5024.4,-7007.9
-5144.1,-3845.2,-9525,-7535.7,-6180,-1929.7,-5032.7,-7018.7
-5137.5,-3836.3,-9518,-7528.1,-6173.8,-1922.6,-5026.6,-7020.2
-5118.3,-3814.3,-9499.3,-7511.7,-6155.5,-1903.2,-5008.2,-7019.9
-5089.1,-3790.2,-9469.1,-7487.2,-6135.1,-1880.3,-4987,-7029.6
-5080.6,-3783.7,-9456.9,-7471.4,-6126.7,-1873.5,-4979.4,-7019.8
-5093,-3791.3,-9464.5,-7473.7,-6129.9,-1878.9,-4982.9,-7008
-5106.8,-3798,-9473,-7479.1,-6134.1,-1883.7,-4986.5,-7000.8
-5146.2,-3837.1,-9499.8,-7496.9,-6170.9,-1922.9,-5021.3,-7002.1
-5158.6,-3852.8,-9524.3,-7520.8,-6184.4,-1936.5,-5035.9,-6997.4
-5144.3,-3840.7,-9523.8,-7524.8,-6177.1,-1927,-5029.3,-6998.9
-5131.8,-3829,-9514,-7520,-6169.5,-1917.8,-5022,-7005.2
-5102.9,-3800.4,-9485.5,-7498.2,-6142.7,-1889.9,-4996,-6999.9
-5080.4,-3777.7,-9460.4,-7473.9,-6118.6,-1866,-4972.7,-6988.1
-5083.8,-3777.5,-9457.2,-7463.9,-6115.2,-1864.2,-4969.6,-6979.3
-5096.3,-3790.2,-9468.9,-7471.1,-6126.7,-1874.9,-4979.8,-6979.5
-5120,-3814.4,-9488,-7487.5,-6149.9,-1897.5,-5001.3,-6986
-5146.7,-3841.3,-9512.9,-7514.6,-6174.7,-1923.6,-5026.9,-6998.1
-5152.2,-3846.4,-9522.1,-7529.7,-6182.9,-1929.4,-5034.4,-7008.3
-5141.4,-3835.6,-9516.8,-7525.4,-6173.8,-1919.4,-5025.6,-7011.1
-5123.5,-3817,-9502.7,-7510.6,-6154.4,-1900.8,-5007.9,-7006.3
-5096.1,-3789.8,-9476.7,-7488.2,-6127.3,-1873.7,-4981.8,-6995.5
-5080.1,-3777,-9457.6,-7471.8,-6112.4,-1860.7,-4967.8,-6983.8
-5088.9,-3785.8,-9461.2,-7473.4,-6117.1,-1867.8,-4973.3,-6978.1
-5106.3,-3801.9,-9475.5,-7485.7,-6128.9,-1881.8,-4985.6,-6975.4
-5132.9,-3830.9,-9498.7,-7507.3,-6155.8,-1909.8,-5011.6,-6984.4
-5151.6,-3847.8,-9516.9,-7528.9,-6176.1,-1929.2,-5030.6,-7000.1
-5147.8,-3844.6,-9518.4,-7534.3,-6177.3,-1928.1,-5031.9,-7009.2
-5136.9,-3834,-9512.3,-7530.7,-6167,-1917,-5023.8,-7007.9
-5103.3,-3800.4,-9482.7,-7507.4,-6136.7,-1884,-4993.8,-6998
-5076.2,-3775.4,-9455.1,-7480.6,-6111.8,-1858.4,-4968.5,-6985.3
-5078.1,-3775.5,-9452.1,-7473,-6111,-1858.9,-4967.3,-6979.4
-5090.6,-3787.2,-9467.2,-7488.2,-6123.7,-1871.6,-4979.5,-6989.1
-5116.4,-3811.1,-9484.6,-7497.9,-6145.2,-1896.1,-5001.5,-6995.4
-5146.6,-3836.4,-9509.3,-7519.6,-6170.4,-1922.4,-5025.4,-7006.9
-5148.1,-3839.6,-9517,-7530.1,-6178,-1928,-5031.9,-7019.9
-5140,-3837,-9515.5,-7531,-6179.8,-1926.4,-5032.1,-7044.9
-5126.5,-3824.4,-9506.1,-7521.3,-6163,-1908.4,-5015.8,-7042.2
-5103.2,-3799.3,-9482.5,-7500,-6138.3,-1883.6,-4992.2,-7023.8
-5081.8,-3781.7,-9456.8,-7478,-6119,-1864.2,-4972.9,-7004.7
-5093.4,-3791.4,-9453.9,-7466.9,-6124.9,-1872.5,-4977.8,-6988.1
-5110.4,-3808,-9470.9,-7479.7,-6136.4,-1888.5,-4991.7,-6970.5
-5131.4,-3829.7,-9493.8,-7504.9,-6160.2,-1912.9,-5015.3,-6975.7
-5148.7,-3846.5,-9514.2,-7527.1,-6180.5,-1932.3,-5034.9,-6993.5
-5144.7,-3844,-9516.3,-7535.3,-6179.4,-1929.9,-5034.3,-7003.8
-5131.7,-3832.8,-9506.7,-7532.4,-6168.9,-1917.4,-5024.2,-7006.7
-5107.5,-3808,-9486.4,-7515.1,-6146.4,-1893,-5002.5,-7001.1
-5077.9,-3782.9,-9460.3,-7491.8,-6124.5,-1869.7,-4979.3,-6990.7
-5078.3,-3775.1,-9449.1,-7474.4,-6116.9,-1862.6,-4970.6,-6981.3
-5096.7,-3789.4,-9459.6,-7478.7,-6125.3,-1874.6,-4980.7,-6978.2
-5115.4,-3810.9,-9476.8,-7493.7,-6142.3,-1893.8,-4998.8,-6982.3
-5137.7,-3836.8,-9500.5,-7515.6,-6167.8,-1920.5,-5024.4,-6993.8
-5150.1,-3849.4,-9515.3,-7530.4,-6181.6,-1933.3,-5038.2,-7005.6
-5140.3,-3838.7,-9511.4,-7528.6,-6175.9,-1924.3,-5031.8,-7010.5
-5125.2,-3822,-9498.9,-7519.6,-6162.3,-1908.4,-5017.6,-7009.1
-5098.5,-3792.5,-9474.1,-7498.2,-6134.5,-1879.5,-4990.8,-6998
-5079.2,-3771.6,-9452.8,-7476.2,-6111.8,-1858.7,-4969.3,-6980.4
-5086.9,-3781.2,-9455.8,-7472.1,-6118.4,-1866.2,-4975.1,-6973.5
-5098,-3794.7,-9468.2,-7479.6,-6131.2,-1878.7,-4986.9,-6975.8
-5124,-3822.6,-9496,-7498.6,-6156.6,-1906.2,-5012.2,-6985.3
-5144.2,-3841.4,-9520.2,-7520.5,-6173.8,-1923.7,-5029.9,-6993.1
-5145.2,-3840.2,-9520.2,-7527.4,-6176.2,-1923.8,-5031.2,-6998.9
-5134.8,-3830,-9507,-7521.3,-6169.8,-1916.2,-5024.7,-7002.2
-5114.9,-3808.9,-9490.8,-7509.3,-6153.3,-1897.5,-5008,-7002.6
-5084,-3777.6,-9471.7,-7491.9,-6124.5,-1866.8,-4979.6,-7000.6
-5078.2,-3773,-9463.7,-7470,-6114.9,-1860.2,-4971,-6989.2
-5095.3,-3790.9,-9472.7,-7473.8,-6129.6,-1877.7,-4985.3,-6986.1
-5108,-3804.4,-9479.7,-7485.8,-6144.1,-1892.3,-4998.9,-6993.5
-5138.4,-3835.4,-9500.9,-7509.3,-6179,-1925.6,-5031.5,-7025.5
-5151.6,-3846.9,-9514.4,-7526.5,-6191.2,-1936.5,-5043.6,-7037.8
-5145.7,-3843.6,-9511.7,-7528.6,-6185.1,-1931.2,-5039.4,-7035
-5130.8,-3828.4,-9498.4,-7519.3,-6170.8,-1915.7,-5025,-7028.3
-5109.9,-3803.5,-9468.4,-7487.3,-6143.7,-1889.3,-4997.4,-7008.1
-5092.3,-3788.2,-9453.1,-7469.8,-6122.3,-1870.3,-4978.4,-6977.1
-5090.1,-3787.5,-9452.5,-7467.8,-6120.5,-1869.5,-4976.6,-6965.7
-5101.6,-3799,-9464.5,-7476.3,-6132.6,-1880.9,-4987.9,-6969.5
-5128.7,-3824.1,-9489.6,-7495.5,-6156.7,-1905.4,-5012.1,-6979.8
-5151.5,-3845.3,-9515.3,-7519.1,-6178.9,-1927.3,-5033.9,-6994.6
-5150.5,-3846.2,-9521,-7528.5,-6182.2,-1929.7,-5037.1,-7004.4
-5138,-3836.1,-9513.1,-7526,-6174.7,-1921,-5029.3,-7008.8
-5113.5,-3811,-9491.2,-7508.7,-6152.6,-1896.5,-5007,-7005.2
-5085.5,-3788.3,-9465.5,-7485.6,-6125.9,-1871.6,-4982.4,-6993.1
-5079.8,-3778.4,-9452,-7470.2,-6113.7,-1860.8,-4970.7,-6981.2
-5097.4,-3785.1,-9460,-7469.7,-6121,-1869.7,-4978,-6976.8
-5119.1,-3805.5,-9477.6,-7480.2,-6136.4,-1888.2,-4994.3,-6978.4
-5149.1,-3834.6,-9504.8,-7502.2,-6164.2,-1916.3,-5020.7,-6989.2
-5166.8,-3853.1,-9523.6,-7521.1,-6177.6,-1928.3,-5033.4,-7000.9
-5158.8,-3853.5,-9523.7,-7528.4,-6169,-1919.3,-5026.3,-7004.8
-5139.2,-3837.8,-9511.8,-7521.4,-6152.2,-1902.9,-5010.6,-6998.6
-5105.6,-3806.4,-9483.4,-7496.8,-6133.1,-1882.7,-4990.7,-6989.2
-5075.9,-3778.6,-9454.7,-7472.6,-6118.4,-1868.2,-4976.2,-6980
-5077,-3779.2,-9449.8,-7466.7,-6121.3,-1872,-4979.2,-6974.3
-5091.7,-3791.9,-9460.1,-7474.9,-6129.6,-1881.8,-4988.6,-6970
-5116.4,-3818.4,-9480,-7493.2,-6149.7,-1903.6,-5008.4,-6975
-5142,-3847.1,-9504.6,-7517.1,-6174.1,-1927.3,-5031.6,-6989.1
-5148.4,-3855.4,-9517.7,-7536,-6183.6,-1933.6,-5039.9,-7004.5
-5131.4,-3839.8,-9514,-7539.9,-6171.3,-1919.4,-5028.5,-7017.1
-5105.4,-3818.5,-9492.5,-7516.6,-6152.7,-1901.8,-5011.5,-7012.5
-5077.8,-3790.5,-9464.2,-7488.3,-6130,-1878.2,-4988.7,-6998.9
-5065.6,-3778.3,-9447.7,-7469.8,-6119.3,-1867.1,-4978,-6991.5
-5075.9,-3792,-9450,-7471.1,-6134.1,-1881,-4991.7,-7009.5
-5101.6,-3818.9,-9469.1,-7488.5,-6155.1,-1903.5,-5012.3,-7013.8
-5127.5,-3841.3,-9492.8,-7512.5,-6176.9,-1927.1,-5033.6,-7015.8
-5143.5,-3860.6,-9510.3,-7533.2,-6195.6,-1945,-5050.6,-7023.2
-5134.3,-3851.5,-9501.5,-7524.9,-6188.4,-1936.5,-5042.1,-7018.8
-5122.1,-3839.5,-9496.3,-7518.7,-6170.9,-1920.7,-5026.9,-6999.5
-5095.7,-3813.4,-9477.2,-7507.6,-6144.7,-1893.2,-5001.1,-6989.3
-5070.7,-3787,-9453.7,-7483.1,-6117.9,-1866.6,-4975.8,-6979.5
-5073.7,-3789,-9453.1,-7474.6,-6116.2,-1867.6,-4975.6,-6972.9
-5086.7,-3801.5,-9462.4,-7481.5,-6127.2,-1879.5,-4986.3,-6972.8
-5113.1,-3828.2,-9484.3,-7501.3,-6153.1,-1907.6,-5012,-6981
-5133.3,-3847.9,-9506.7,-7524.2,-6177.3,-1930.2,-5034.3,-6996
-5137.5,-3851.8,-9512.1,-7529.6,-6185.5,-1935.8,-5041.3,-7006.4
-5131.8,-3847,-9508.8,-7530.1,-6178.8,-1928.8,-5036.8,-7010.6
-5108.3,-3824.5,-9489,-7517.6,-6156.8,-1905,-5014.9,-7006.6
-5079.3,-3796.2,-9462.9,-7493.4,-6130.8,-1877.8,-4989.2,-6994.5
-5066.8,-3784.4,-9451.7,-7473.7,-6115.3,-1864.5,-4975.5,-6980
-5079,-3793.5,-9463.4,-7474.6,-6120.3,-1871.4,-4980.3,-6974.1
-5093,-3813.5,-9475.6,-7486.2,-6136.8,-1889.7,-4996,-6976
-5121,-3843.7,-9496.6,-7511.5,-6164.7,-1919.7,-5022.8,-6986.9
-5139.8,-3859.5,-9512.7,-7532.5,-6180.1,-1936.1,-5038.4,-6995.1
-5143,-3854.2,-9513.8,-7536.8,-6177.1,-1929.6,-5034,-7001
-5126.9,-3837.2,-9503.1,-7528.9,-6167.4,-1917.4,-5023.3,-7002.4
-5096.6,-3808.5,-9478.9,-7507.5,-6144,-1891.4,-4999.4,-6995.4
-5071.4,-3787.9,-9457.4,-7485.6,-6118,-1866.7,-4975.2,-6977.6
-5070.3,-3788.9,-9450.7,-7477.7,-6114.3,-1865.1,-4970.7,-6965.8
-5083.4,-3800.8,-9459.3,-7482.2,-6128,-1880,-4983.7,-6965.8
-5111.3,-3830.1,-9484.8,-7506.6,-6155.4,-1909.1,-5010.6,-6979
-5137.8,-3853.9,-9516.5,-7540.2,-6181.4,-1934.4,-5036.4,-7003.8
-5145.9,-3861.2,-9525.7,-7548.4,-6189,-1941.1,-5044.7,-7015.7
-5141,-3858.7,-9521.4,-7545.1,-6184.5,-1936.3,-5040.8,-7019.1
-5119.7,-3838.5,-9502.6,-7532.3,-6167,-1916.4,-5022.6,-7021.3
-5088.4,-3809.5,-9469.4,-7504.4,-6140.5,-1887.4,-4995.3,-7029.6
-5074.4,-3793.7,-9451.7,-7484,-6121,-1869.6,-4976.9,-7016
-5093.8,-3809.9,-9462.8,-7487.1,-6133,-1884.7,-4988.8,-7002.8
-5104.5,-3820,-9474.1,-7496.6,-6144.6,-1894.3,-4998.2,-6998.4
-5141.7,-3855.6,-9499.7,-7511.3,-6176.5,-1927.9,-5028.1,-6998.6
-5151.1,-3867.4,-9521.4,-7531.9,-6186.3,-1937.4,-5039,-6992.3
-5142.6,-3860.2,-9524.5,-7538.8,-6182.5,-1932.1,-5036.1,-6993.3
-5127.3,-3845.1,-9514.9,-7533.2,-6171.4,-1918.8,-5025.3,-6997.3
-5100.4,-3819.4,-9488.8,-7513.1,-6147.6,-1894.1,-5002.8,-6991.9
-5076.5,-3797,-9461,-7488,-6123.7,-1870.2,-4979.7,-6979.9
-5076.8,-3799.2,-9453.3,-7478,-6119.3,-1867.7,-4975.1,-6970.7
-5088.1,-3810,-9461.8,-7484.8,-6131.1,-1880.3,-4985.7,-6970.8
-5108.9,-3833.5,-9480.4,-7500.4,-6153.1,-1903,-5006.3,-6978.5
-5135.9,-3860.7,-9507.5,-7525.8,-6177.1,-1928.5,-5030.8,-6991.4
-5142.9,-3865.4,-9519.7,-7540.4,-6186.5,-1937.3,-5040.5,-7003.2
-5132.3,-3851.2,-9514.5,-7536,-6177.8,-1927.6,-5032.9,-7007.3
-5112.6,-3830.9,-9498.5,-7521.9,-6160.4,-1910.1,-5016.6,-7003.2
-5083.9,-3803.3,-9472.3,-7499,-6134.3,-1883.3,-4990.6,-6992.7
-5071.9,-3788,-9454.8,-7480.1,-6118,-1868.1,-4974.9,-6980.2
-5078.2,-3794.3,-9457.9,-7480.7,-6123.3,-1874.9,-4979.7,-6974.9
-5093.5,-3810.8,-9470.3,-7492.4,-6135.2,-1888.8,-4992.1,-6972.7
-5120.6,-3836.9,-9494.4,-7511.6,-6160.4,-1914.6,-5016.3,-6980.9
-5140.2,-3856.7,-9515.3,-7532.2,-6182.7,-1936.5,-5037.7,-6995.7
-5137.6,-3852.3,-9516.8,-7536.9,-6183.1,-1933.8,-5038.5,-7003.7
-5124.6,-3840.1,-9508.8,-7529.4,-6170.7,-1920.5,-5027.5,-6999.2
-5097,-3813.3,-9485.6,-7509.2,-6146.8,-1894.6,-5003.2,-6989.7
-5072.3,-3790.1,-9461.6,-7483,-6123.6,-1871.7,-4979.4,-6977.8
-5072.8,-3790.1,-9460.8,-7479,-6121.9,-1870.7,-4977,-6972.7
-5079.5,-3796.7,-9476.7,-7492.1,-6128.2,-1877,-4982.2,-6980.5
-5104,-3819.9,-9493.2,-7499.1,-6146.9,-1898.7,-5001.6,-6985.1
-5136,-3850.5,-9513,-7522.3,-6174.8,-1928,-5028.8,-6995.5
-5147.5,-3864.2,-9521.7,-7543.4,-6190.3,-1942.8,-5043.7,-7012.9
-5132.8,-3851.5,-9508.4,-7539.7,-6184,-1933.6,-5036.4,-7038.4
-5119.6,-3838.2,-9495.7,-7528.3,-6168.4,-1918.5,-5021.7,-7037.3
-5093.2,-3812.2,-9474.2,-7507.1,-6141.5,-1891.2,-4995.5,-7019.1
-5070.3,-3789.6,-9454.3,-7483.5,-6121.2,-1869.3,-4974,-7000.3
-5085.7,-3802.4,-9456.4,-7470.8,-6127.3,-1879.7,-4979.4,-6983.9
-5102.4,-3819.3,-9476.4,-7483.2,-6135.7,-1892.1,-4989.6,-6966.8
-5126.2,-3843.4,-9502.1,-7509,-6159.8,-1917,-5012.5,-6972.1
-5143.3,-3862.6,-9519.9,-7534.3,-6178.8,-1934.7,-5030.1,-6989.9
-5139.8,-3861,-9520.1,-7542.3,-6179.6,-1933.6,-5030.2,-7001.9
-5128.7,-3849.1,-9508.6,-7534.8,-6170,-1922.7,-5020.2,-7005.6
-5106.2,-3825.6,-9486.3,-7515.8,-6150.1,-1899.2,-4999.6,-7000.3
-5081.6,-3799,-9460.6,-7490.6,-6127.1,-1874.3,-4975.2,-6989.3
-5074.3,-3789.6,-9447.9,-7473.5,-6119.7,-1868.4,-4966.4,-6979.2
-5086.7,-3802.2,-9457.3,-7477.6,-6129.6,-1882.3,-4978.1,-6977
-5106.2,-3823,-9475.1,-7491.7,-6147.3,-1902,-4995.9,-6982.4
-5133,-3849.5,-9500.2,-7514.4,-6170.9,-1925.7,-5019.3,-6994
-5146.3,-3862.7,-9517.6,-7531.9,-6184.1,-1937.8,-5032.6,-7004.3
-5135.2,-3852.8,-9517.7,-7533.9,-6177.6,-1928.5,-5025.8,-7008.2
-5118.7,-3836.9,-9509,-7524.7,-6162.4,-1912.7,-5010.8,-7005.3
-5089.8,-3808.9,-9485.5,-7505.3,-6134.8,-1885.4,-4984.2,-6993.4
-5070.1,-3789.5,-9459.8,-7484.2,-6112.3,-1865.2,-4962.8,-6974.6
-5082.4,-3797.9,-9459.1,-7479.1,-6119.4,-1872.8,-4968.3,-6965.9
-5093.8,-3810.1,-9466.8,-7487.2,-6132.1,-1884.6,-4979.9,-6966
-5119.6,-3838.8,-9488.8,-7508.9,-6157.8,-1911.5,-5005.1,-6973.2
-5138.5,-3860.7,-9511.7,-7535.9,-6177.3,-1930.9,-5025.2,-6980.7
-5137.4,-3861.4,-9514,-7546.3,-6179.7,-1930.5,-5026.3,-6988.2
-5126,-3849.6,-9502.4,-7538,-6170.1,-1919.8,-5016.5,-6992.3
-5109.2,-3829.1,-9488,-7527.2,-6153.1,-1901.7,-4999.3,-6993.2
-5078.5,-3796.9,-9467.1,-7510,-6124.6,-1871.4,-4970.7,-6991.6
-5071.6,-3791,-9455.1,-7486.5,-6115.3,-1865,-4962,-6981.3
-5083,-3805.1,-9461,-7487.2,-6125.1,-1877.3,-4971.3,-6976.3
-5101.2,-3822.4,-9473.6,-7500.6,-6142.9,-1896.5,-4989.2,-6983.7
-5130.3,-3854.2,-9496.6,-7524.7,-6175.8,-1928,-5020.1,-7017.2
-5144.9,-3868,-9512.2,-7540.7,-6189.7,-1942.1,-5034,-7030.3
-5141.3,-3865.9,-9514.8,-7547.3,-6189.2,-1941.7,-5033.9,-7029.9
-5126.7,-3848.4,-9502.1,-7537.8,-6174.6,-1925.1,-5018.5,-7024.7
-5105.3,-3817.5,-9470.5,-7504.1,-6144.1,-1892.9,-4986.5,-7004.3
-5089.3,-3800.5,-9456.3,-7482.4,-6120.7,-1872.5,-4965.3,-6971.6
-5082,-3797.8,-9455.8,-7478.5,-6115.5,-1867.7,-4960.4,-6958.5
-5090.9,-3811.4,-9465.8,-7485.6,-6125.7,-1878.7,-4970.4,-6960.8
-5121.2,-3844.7,-9492.3,-7509.4,-6156.2,-1910.7,-5000.9,-6972.4
-5136.7,-3858.4,-9510.2,-7529.4,-6174,-1926.7,-5017.9,-6987.8
-5142.7,-3862.3,-9519.2,-7536.5,-6179.2,-1932.6,-5023.7,-6998.4
-5131.4,-3850.4,-9515.8,-7534.7,-6172.3,-1923.5,-5015.7,-7004.2
-5106.1,-3826,-9492,-7515.6,-6151,-1899.9,-4993.1,-7000.3
-5083.1,-3802.9,-9464.1,-7493,-6125.4,-1876.6,-4969.6,-6988.4
-5070.1,-3791.1,-9446.9,-7477.1,-6111.7,-1865.7,-4957.2,-6977
-5079,-3799.4,-9452.3,-7477.2,-6118.4,-1874.6,-4965,-6972.9
-5097.6,-3819.4,-9467.2,-7488.2,-6135.3,-1893.2,-4982.1,-6974.2
-5125.3,-3850.2,-9494,-7515.1,-6163.2,-1921.1,-5008.5,-6985.7
-5138,-3859.3,-9508.5,-7534.1,-6174.1,-1930.5,-5019,-6996.1
-5134,-3854.2,-9508.6,-7537.9,-6169.9,-1924.3,-5014.8,-7000.7
-5118.4,-3839.4,-9497.1,-7528.9,-6156.1,-1909.7,-5001.9,-6995.2
-5090,-3809.1,-9471.8,-7503.3,-6132.8,-1883.3,-4977.8,-6984.8
-5069.3,-3788.3,-9448.8,-7479.1,-6113.3,-1863.4,-4958.1,-6972.4
-5071.7,-3790.9,-9446,-7472.5,-6112.4,-1865.3,-4957.6,-6964.2
-5085.9,-3805,-9460.4,-7480.9,-6122.1,-1877.9,-4968.7,-6959.4
-5112.4,-3829,-9483.3,-7499.2,-6144.7,-1902,-4990.3,-6965.6
-5137.9,-3853.7,-9506.7,-7521.4,-6168.2,-1925.9,-5012.5,-6979.9
-5147,-3862.5,-9519.7,-7538.9,-6180.5,-1936.1,-5023.6,-6995.7
-5129.5,-3847.8,-9514.2,-7544.4,-6170.2,-1922.8,-5012.9,-7009.4
-5105.8,-3829.1,-9493.5,-7523.5,-6151.5,-1904.1,-4994.6,-7006
-5083.9,-3802.3,-9467.4,-7495.7,-6127.1,-1878.5,-4970.2,-6993.2
-5075.3,-3791,-9455.4,-7477.3,-6116.1,-1868.3,-4959.1,-6985.3
-5084.2,-3805.6,-9462.5,-7479.4,-6130.7,-1882.8,-4971.8,-7003.2
-5103.4,-3826.4,-9475.1,-7487.2,-6144,-1898.2,-4984.9,-7004.9
-5137.3,-3859.4,-9502,-7512.7,-6171.1,-1927.6,-5012.4,-7007.6
-5147.6,-3868.3,-9513.5,-7528.5,-6183.3,-1937.9,-5023.8,-7013
-5148.3,-3868.4,-9510.2,-7526.6,-6186.1,-1939.8,-5025,-7012
-5136,-3854.9,-9503.6,-7523.6,-6169.8,-1925.6,-5011.4,-6994.8
-5105,-3821.9,-9480.1,-7507.6,-6140.7,-1895.6,-4983.3,-6983.3
-5080.1,-3797.1,-9455.7,-7484.4,-6116.7,-1870.9,-4960,-6974.6
-5081.9,-3797.7,-9451.6,-7474.7,-6113.9,-1870,-4958,-6968.2
-5092.7,-3814.2,-9461.4,-7482,-6123.5,-1882.1,-4968.1,-6969.1
-5119.1,-3840.2,-9484.4,-7500.7,-6145.8,-1907.5,-4990.5,-6977.5
-5143.5,-3863.6,-9510.2,-7524.9,-6172.9,-1933.4,-5015.5,-6992.9
-5142.6,-3867.2,-9516.8,-7534.4,-6181.6,-1938.4,-5022.2,-7004.7
-5135.3,-3857.8,-9513.3,-7532,-6173.5,-1928.9,-5015.9,-7007.7
-5115.1,-3834.6,-9498.4,-7516.1,-6153,-1907.6,-4996.6,-7003.8
-5083.7,-3807.2,-9472,-7490.5,-6124.9,-1880,-4969.4,-6992.3
-5073.2,-3795,-9454.5,-7471.5,-6110.5,-1868.3,-4956.4,-6979.2
-5084.8,-3803.5,-9456.9,-7471.9,-6118,-1877.5,-4963.1,-6974.7
-5102.1,-3820.2,-9468.2,-7483.6,-6133.8,-1894.2,-4978.1,-6977.5
-5129.7,-3849.4,-9495.4,-7508.8,-6161.5,-1924.3,-5006.4,-6989.2
-5142.7,-3866.1,-9515.7,-7531.7,-6177.3,-1939.9,-5022.7,-6999.4
-5136.9,-3862.1,-9516.6,-7535,-6176.6,-1935.2,-5021.1,-7005.2
-5126.2,-3851.3,-9507.8,-7528.5,-6166.5,-1923.1,-5011.4,-7006
-5097.5,-3823.6,-9484.3,-7508.6,-6141.3,-1896.3,-4987,-6998.1
-5070.1,-3796.4,-9462,-7481.7,-6112.8,-1868.8,-4960.5,-6979.3
-5069.2,-3792.7,-9453.9,-7469.5,-6104.6,-1862.2,-4952,-6966.1
-5087.4,-3807.9,-9460.4,-7477.5,-6119.5,-1877.3,-4965.4,-6965.7
-5115.5,-3832.7,-9482,-7500.8,-6147.2,-1905.7,-4992.2,-6977
-5135.6,-3854.7,-9508.7,-7533.1,-6170.5,-1927.3,-5014.5,-7000.1
-5141.4,-3867,-9516.8,-7541.1,-6180.5,-1937.7,-5025.5,-7012.2
-5135.2,-3861.8,-9511.3,-7535.7,-6173.6,-1930.5,-5018.8,-7014.1
-5113.8,-3839.6,-9494.3,-7520.8,-6155.3,-1910.3,-5000,-7013.8
-5087.2,-3811.7,-9466.6,-7496.2,-6135.1,-1887.6,-4978.5,-7023.2
-5078.3,-3800.8,-9451.3,-7475.4,-6122.1,-1876.5,-4965.7,-7010.3
-5089.4,-3809.6,-9457.7,-7476.3,-6127.2,-1884.2,-4971,-6997.1
-5103.3,-3824.8,-9470.4,-7486.4,-6141,-1897.7,-4983.4,-6993.4
-5134.6,-3855.7,-9491.2,-7500.9,-6168.3,-1926.3,-5008,-6993.4
-5154,-3875,-9515.1,-7526.7,-6184.2,-1943.5,-5025.1,-6988.4
-5143.9,-3868.9,-9514.9,-7539.2,-6182.2,-1939,-5023,-6992.8
-5128.5,-3852.1,-9502.1,-7533.4,-6170.3,-1925.4,-5011.7,-6998.3
-5099.9,-3825.5,-9479.4,-7512.8,-6146,-1899.2,-4988.2,-6993.7
-5075,-3801.5,-9456.2,-7486.5,-6121.4,-1874.1,-4964.4,-6982.5
-5075.9,-3800.5,-9450.2,-7472.4,-6115.8,-1870.7,-4959,-6973.4
-5089.6,-3815.5,-9461,-7477,-6129.3,-1884.9,-4970.9,-6973.8
-5109.1,-3835.1,-9478.9,-7489.3,-6150.2,-1905.7,-4990,-6980.7
-5135.2,-3861.1,-9506,-7512.8,-6176.4,-1933.8,-5016.2,-6993.6
-5143,-3868.6,-9515.9,-7527.5,-6186,-1943.3,-5025.9,-7005.7
-5134.5,-3858.6,-9510.1,-7526.7,-6177.8,-1934.8,-5018.7,-7011.1
-5115.9,-3839.4,-9496.5,-7513.7,-6159.3,-1916.3,-5001.5,-7008.4
-5087.2,-3809.4,-9473.4,-7489.8,-6131.3,-1886.4,-4973.2,-6997.9
-5071.1,-3796,-9456.2,-7471.6,-6114.8,-1871,-4957,-6985.5
-5078.5,-3804,-9455.8,-7472.7,-6119.7,-1878.9,-4962.5,-6980.1
-5094.9,-3818.7,-9466.3,-7483.7,-6130.7,-1892.7,-4974.3,-6977.8
-5124.8,-3847.3,-9491.1,-7504.3,-6157,-1918.5,-4999,-6985.6
-5142.4,-3867.4,-9514.1,-7526.9,-6178.7,-1938.7,-5019.1,-7000.2
-5139.3,-3865.2,-9519.4,-7533.4,-6179.3,-1937.6,-5019.3,-7009.4
-5128.7,-3855.5,-9513.5,-7528.7,-6167.4,-1926.3,-5009.7,-7005.9
-5097.8,-3825.8,-9484.3,-7508.1,-6139.5,-1896.5,-4982.3,-6995.8
-5069.8,-3795.5,-9451.8,-7476.8,-6112,-1869.4,-4955.9,-6981.5
-5072.4,-3799.7,-9452.2,-7473.7,-6116.6,-1874.4,-4959.7,-6979.1
-5075.4,-3806.2,-9460,-7484.3,-6124.5,-1882.2,-4967.1,-6987
-5101.6,-3831.7,-9478.6,-7495.3,-6146.8,-1907,-4989.9,-6992.8
-5138.5,-3859.1,-9507.3,-7517.4,-6172.9,-1933,-5014.5,-7002.6
-5140.2,-3865.5,-9514.1,-7528.7,-6179.8,-1938.1,-5021,-7014.9
-5135.9,-3866.1,-9510.5,-7530.1,-6180.2,-1935.7,-5021.1,-7039.2
-5130.4,-3854.7,-9502.1,-7522.7,-6162.9,-1918.5,-5005,-7037.2
-5106.7,-3828.1,-9480.1,-7502.2,-6134,-1890.9,-4977.8,-7018.7
-5082.8,-3805.1,-9456.2,-7479.5,-6116.1,-1874.5,-4959.8,-6999.6
-5086.8,-3810.6,-9450.6,-7469,-6126,-1887.5,-4968.5,-6985.6
-5096.5,-3823,-9464.6,-7480,-6138.3,-1903.8,-4983.3,-6969
-5117,-3844.8,-9490.4,-7504.5,-6162.7,-1928.2,-5007.8,-6975.1
-5135.6,-3864,-9512.9,-7528.7,-6181.5,-1945.2,-5026.2,-6993
-5135.1,-3863.8,-9515.2,-7535.8,-6180.7,-1942.7,-5025.8,-7003.7
-5125.5,-3852.9,-9507.7,-7529.8,-6169.2,-1930.8,-5014.9,-7007
-5100.3,-3826.9,-9489,-7510.7,-6146.9,-1907.1,-4992.7,-7002.8
-5074.7,-3802.2,-9469.3,-7485.3,-6122.8,-1883.1,-4968.7,-6992.4
-5068.6,-3793.4,-9460.7,-7468.4,-6112.2,-1873.7,-4957.3,-6982.7
-5079.9,-3805.7,-9464.4,-7470.4,-6120.9,-1886.1,-4967.1,-6980.5
-5099.7,-3826.9,-9477.3,-7485,-6141.4,-1908.3,-4987.8,-6985.8
-5125.2,-3853.3,-9498.9,-7509.3,-6166.9,-1934.3,-5012.9,-6997.8
-5137.5,-3867.4,-9512.1,-7528.8,-6181.6,-1948.4,-5027.4,-7009.5
-5128.1,-3858.8,-9508.1,-7529.6,-6175.5,-1939.6,-5021.1,-7014.8
-5111,-3843.1,-9496.8,-7518.7,-6162.6,-1925.3,-5008.6,-7013.9
-5083.3,-3816.8,-9472.2,-7496.1,-6134.9,-1897.4,-4982.1,-7003.8
-5066.9,-3798.7,-9451.4,-7475.3,-6111,-1875.4,-4960.2,-6986
-5074.3,-3802.7,-9451.3,-7468.9,-6113.5,-1878.2,-4962.1,-6977.3
-5089.3,-3817.6,-9462.3,-7477,-6127.1,-1892.2,-4974.8,-6978.6
-5121.4,-3848.9,-9490.3,-7501.7,-6157,-1923.3,-5003.7,-6988.2
-5133.6,-3859.1,-9511,-7522.7,-6172,-1936.6,-5018.5,-6995.6
-5136,-3857.5,-9515.7,-7527,-6174.9,-1937.7,-5021,-7001.2
-5124,-3845.5,-9505.9,-7520.4,-6166.2,-1926.5,-5012.1,-7004.4
-5101.9,-3827.3,-9486.9,-7508.9,-6149,-1907.1,-4993.9,-7003.5
-5073.5,-3802,-9465.9,-7495.6,-6125.3,-1882.1,-4970.3,-7002.1
-5065.5,-3793,-9452,-7473,-6114.6,-1873.6,-4960.9,-6989.9
-5077.9,-3807.5,-9458.8,-7472.7,-6124.1,-1885.1,-4970.1,-6984.1
-5096.2,-3828.1,-9474.3,-7486.7,-6142.3,-1904.5,-4987.8,-6991.1
-5125.4,-3857.5,-9498.9,-7511.5,-6175,-1935.5,-5018.9,-7024.2
-5139.1,-3870.5,-9513.8,-7526.3,-6188.1,-1947.8,-5032.8,-7035.7
-5138.8,-3867.4,-9517.8,-7530.9,-6188.4,-1946.6,-5033.4,-7032.2
-5118.4,-3846.9,-9505.3,-7520.6,-6171.4,-1927.3,-5015.8,-7022.9
-5094.4,-3824.3,-9479.5,-7493.7,-6146.2,-1901.8,-4989.7,-7003.3
-5078.1,-3804.8,-9462.1,-7477,-6121.2,-1879.6,-4967.5,-6971.7
-5076.5,-3803.9,-9456,-7476.1,-6120.2,-1879.9,-4966.6,-6960.1
-5087.3,-3814.7,-9462.6,-7484.6,-6132.7,-1892.9,-4978.6,-6964.3
-5111.6,-3839.4,-9483,-7501,-6156.2,-1917.4,-5002.4,-6974.7
-5131.3,-3864.1,-9505.7,-7525.8,-6180.7,-1941.4,-5026.7,-6990.5
-5137.7,-3864.1,-9513.1,-7535.9,-6183.6,-1942.7,-5029.8,-7001.4
-5133,-3854.3,-9507.2,-7530.7,-6175.2,-1932.9,-5021,-7005.5
-5108.6,-3833,-9486.1,-7512.4,-6155.6,-1911.1,-5000.6,-7002.4
-5080,-3807.3,-9461,-7487.4,-6129.3,-1885.6,-4976.9,-6990.4
-5067.5,-3796.3,-9449.5,-7470.9,-6114.5,-1874.1,-4963.7,-6978.2
-5076.6,-3805.9,-9458.2,-7472.4,-6120.7,-1883.8,-4970.3,-6973.9
-5094.5,-3825.1,-9474.8,-7484.4,-6136.3,-1901.8,-4986.5,-6975.6
-5121.5,-3854.3,-9499.4,-7508.2,-6165.1,-1929.2,-5014.3,-6986.1
-5137.7,-3870.3,-9517,-7527.8,-6184,-1944.2,-5031.5,-6999.1
-5131.9,-3863.7,-9516.6,-7530.9,-6179.7,-1938.1,-5027.1,-7005
-5115.2,-3846.1,-9505.3,-7523.4,-6164,-1923.1,-5012.3,-7000.2
-5087.4,-3816.9,-9480.1,-7501.1,-6139.3,-1896.9,-4987.2,-6990.3
-5066.2,-3796.9,-9457.6,-7479.9,-6117.7,-1875.9,-4966.3,-6978.6
-5068.9,-3799.9,-9455.3,-7474.2,-6114.3,-1874.8,-4963.5,-6970.8
-5081.8,-3815.1,-9466.4,-7483.9,-6121.2,-1883.5,-4971.2,-6965
-5105.2,-3838.8,-9483.5,-7500.9,-6143.1,-1906.4,-4992.3,-6969.9
-5130,-3862,-9505.9,-7521.4,-6167.4,-1930.2,-5015.3,-6984.7
-5140.5,-3870.5,-9523.9,-7539.9,-6180.9,-1941.3,-5027.5,-7001.6
-5123.7,-3854.7,-9522.9,-7543.5,-6170.6,-1928,-5017.3,-7015.2
-5103.5,-3833.1,-9501.2,-7520.6,-6150.2,-1906.6,-4997.8,-7009.8
-5080.6,-3807.6,-9474.7,-7492.4,-6125,-1880.4,-4973.2,-6995
-5069.8,-3797.3,-9459.2,-7473.9,-6114,-1869.3,-4962.2,-6986.3
-5078,-3810.1,-9458.4,-7474.7,-6127.9,-1882.7,-4975,-7002.3
-5105,-3833,-9474.1,-7489.7,-6149,-1906,-4996.3,-7006.6
-5135.8,-3860.8,-9500,-7515.8,-6174.3,-1932.7,-5021.9,-7010.6
-5139.8,-3865.9,-9508.1,-7530,-6181.7,-1937.8,-5028.7,-7014.7
-5141.7,-3868.9,-9507,-7526.5,-6184.1,-1940.9,-5031,-7011.5
-5129.4,-3859.1,-9505.9,-7525.9,-6170.5,-1928.1,-5019.5,-6995.2
-5097,-3825.1,-9483.5,-7509.5,-6142,-1898,-4991.9,-6984.2
-5070.5,-3800.1,-9457.6,-7485,-6117.6,-1873.4,-4968.5,-6976.7
-5071.2,-3800.9,-9451.3,-7473.8,-6113.9,-1871.9,-4965.6,-6970.7
-5082.9,-3813,-9461.1,-7479.5,-6125.6,-1884,-4977.1,-6971.7
-5109.2,-3838.6,-9483,-7496.5,-6150.9,-1911.4,-5002.5,-6980.5
-5130.4,-3860.7,-9505.8,-7519.8,-6175.2,-1934.8,-5024.9,-6996.8
-5133.2,-3865.1,-9511.4,-7529.8,-6184.2,-1942.1,-5032.7,-7007.9
-5130.9,-3855.6,-9510.8,-7527.3,-6176.3,-1933.4,-5026.3,-7011.4
-5110.6,-3836.2,-9498.1,-7512,-6155.9,-1912,-5006.7,-7007.5
-5079.6,-3810,-9471.5,-7488.6,-6127,-1882.5,-4978.3,-6996.2
-5068,-3796.6,-9453.6,-7470.5,-6111.3,-1869.2,-4963.9,-6982.2
-5079.9,-3804.1,-9458.2,-7471.2,-6118,-1877.6,-4970.5,-6977
-5094.7,-3818.7,-9470.5,-7482.4,-6133.3,-1894,-4985.7,-6979.4
-5121.1,-3845.4,-9493.9,-7505.8,-6159.2,-1921.9,-5011.8,-6989.4
-5139.9,-3864.3,-9514.7,-7527.5,-6175,-1939.3,-5028.9,-6999.2
-5138,-3861.1,-9517.1,-7530,-6173,-1935.3,-5026.8,-7006.3
-5123.8,-3849.5,-9508.6,-7521.9,-6162.4,-1922.4,-5015.9,-7007.3
-5093.8,-3823.3,-9487.3,-7502.4,-6139.8,-1897,-4992.7,-6999.2
-5067.8,-3797.1,-9463.8,-7478.2,-6113.6,-1871.8,-4968.7,-6980.3
-5067.9,-3795.9,-9454.6,-7468.1,-6107.6,-1869.2,-4963.6,-6968.7
-5079,-3810.4,-9461.5,-7474.2,-6118.6,-1881.3,-4973.6,-6969.2
-5104.4,-3834.3,-9484.3,-7496.2,-6143.8,-1906.6,-4997.6,-6981
-5126.1,-3856.7,-9511.9,-7529.6,-6167.9,-1928.9,-5021,-7004.4
-5136.5,-3866.2,-9521.5,-7537.5,-6176.4,-1937.3,-5030.2,-7015.8
-5128.7,-3858.7,-9514.8,-7533.3,-6169.9,-1930.1,-5023.7,-7017.3
-5109.8,-3839.3,-9499.1,-7520.6,-6155.3,-1912.5,-5008.3,-7017.7
-5081.1,-3810.6,-9470,-7494.2,-6133.2,-1886.8,-4985.2,-7027.4
-5072.6,-3800.6,-9456.4,-7474.4,-6118.2,-1874,-4971.1,-7015.3
-5083.1,-3812.5,-9463.4,-7475.7,-6123.6,-1881.9,-4976.4,-7002.1
-5096.4,-3827.6,-9475.4,-7485.8,-6136.6,-1895.7,-4988,-6998.3
-5127.1,-3859.9,-9494.7,-7502.1,-6163,-1924.3,-5012.7,-6999.3
-5146.6,-3875.4,-9517.9,-7523.6,-6179.2,-1942.4,-5031.7,-6993.8
-5139.6,-3869.8,-9522,-7534.3,-6178,-1938.1,-5031.4,-6998
-5125.5,-3853.6,-9510.9,-7528.8,-6167.9,-1924.8,-5021.7,-7003.4
-5095.5,-3825.8,-9486.4,-7510.8,-6141.4,-1895.7,-4995.8,-6999.1
-5069.2,-3802.5,-9462.2,-7487.6,-6117.3,-1871.6,-4972,-6987.9
-5073.2,-3797.1,-9457.6,-7473.8,-6110.6,-1866.9,-4965.9,-6978.3
-5085.6,-3809.3,-9467.1,-7477.6,-6123.5,-1881.1,-4977.6,-6977
-5104.1,-3829.1,-9483.6,-7490.2,-6144.3,-1902.4,-4997.3,-6983.1
-5130.8,-3856.8,-9513.2,-7514.3,-6168.9,-1928.5,-5022.3,-6994.5
-5137.8,-3863.2,-9527.9,-7530.5,-6178.5,-1936.3,-5032.1,-7005.8
-5130.9,-3857.2,-9523.6,-7530.9,-6173.6,-1930.1,-5027.8,-7010.1
-5111.2,-3838.9,-9505,-7520.3,-6155.4,-1911.7,-5010.3,-7007.1
-5082,-3811.1,-9477.1,-7498,-6129,-1884.4,-4984.3,-6996.7
-5065.3,-3796.6,-9456.5,-7478.6,-6112.4,-1870,-4969,-6984.8
-5073,-3803.1,-9457,-7477.9,-6116.7,-1876.2,-4973.5,-6979.4
-5086.3,-3816.8,-9466.8,-7486.3,-6127.6,-1888.1,-4984.1,-6975.8
-5115.9,-3847,-9494.7,-7506.3,-6156.6,-1917.3,-5011.7,-6983.8
-5136,-3866.5,-9516.6,-7528.3,-6177.8,-1937.3,-5032.1,-6998
-5134.6,-3864.6,-9518.9,-7535.3,-6179.5,-1937.9,-5033.8,-7006.7
-5122.2,-3851.1,-9511.5,-7532.3,-6167.2,-1925.3,-5023.2,-7003.7
-5092.5,-3820.5,-9487,-7510.8,-6142.2,-1898.6,-4998.4,-6994.6
-5069.6,-3796.6,-9463.3,-7485.8,-6120.3,-1876.3,-4976.1,-6983.7
-5065.7,-3792,-9452.7,-7476.1,-6113.7,-1871.1,-4969.9,-6977.4
-5076.6,-3804,-9461.4,-7488.5,-6124.1,-1882.9,-4980.6,-6985.6
-5093.3,-3822.7,-9471.8,-7492.9,-6140.9,-1901.5,-4997.8,-6989.1
-5120.5,-3851.8,-9498,-7514.3,-6170.6,-1930.5,-5026.4,-6998.9
-5129.4,-3865,-9513.1,-7532.1,-6185.3,-1943.7,-5041.3,-7013.7
-5121.7,-3857.5,-9508.5,-7533.6,-6184.8,-1939.5,-5039.8,-7040.2
-5113.1,-3842.8,-9496.6,-7522.2,-6170.6,-1925.3,-5025.9,-7038.9
-5087.9,-3818.1,-9473.5,-7501.4,-6144.3,-1898.8,-5000.4,-7021.2
-5065,-3798.9,-9451.7,-7478.3,-6124.3,-1878.6,-4979.7,-7002
-5075.2,-3806,-9451.1,-7466.4,-6127.6,-1884.6,-4981.7,-6985
-5091.7,-3820.3,-9472.4,-7480.2,-6136.7,-1897.3,-4992.9,-6967
-5113.3,-3843.1,-9497.2,-7506,-6159.6,-1920.6,-5015.9,-6972.2
-5129.7,-3860.2,-9512.5,-7527.3,-6178.7,-1937.6,-5034.3,-6989.5
-5131.6,-3864.3,-9514.5,-7534.1,-6180.4,-1939,-5036.6,-7000.8
-5121.6,-3856.4,-9505.6,-7529.7,-6169.5,-1927.9,-5026.3,-7004.1
-5098.2,-3833,-9485.8,-7513.3,-6148.3,-1905.3,-5005.5,-7000.1
-5070.7,-3804.5,-9461.5,-7488.1,-6124.3,-1880.1,-4981.3,-6990.6
-5060.7,-3790.7,-9449.3,-7467.9,-6118.8,-1874.3,-4975.2,-6981.9
-5071.6,-3798.9,-9457,-7468.9,-6129.7,-1888.3,-4987.4,-6980.7
-5088.3,-3814.2,-9472,-7481.7,-6147,-1907.6,-5005,-6986.3
-5120.9,-3841.5,-9499.1,-7504.9,-6174.4,-1935.3,-5031.8,-6998.4
-5135.4,-3856.7,-9515.2,-7523.4,-6185.7,-1946.7,-5043.6,-7009.8
-5128.1,-3848.4,-9511.6,-7526.6,-6178,-1937.9,-5035.9,-7014.4
-5111.2,-3831.2,-9499.4,-7517.2,-6165.5,-1923.7,-5023,-7013.2
-5083.5,-3800.5,-9476.1,-7496.6,-6139.3,-1895.6,-4997.3,-7003.3
-5063.5,-3780.5,-9455.8,-7476.8,-6118.4,-1875.9,-4977.8,-6986.8
-5066.8,-3784.8,-9455.8,-7467.6,-6119.7,-1878.9,-4978.9,-6978.4
-5081.3,-3800,-9468.2,-7472.8,-6131.5,-1892.3,-4990.6,-6979.6
-5107.2,-3827.6,-9491.9,-7492.3,-6153.7,-1915.7,-5012.6,-6987.2
-5127.6,-3850.4,-9515.1,-7517.1,-6175,-1937.3,-5035.1,-6995.1
-5128.3,-3853.1,-9518.7,-7528.5,-6180.5,-1940.7,-5040.5,-7003.4
-5118.9,-3842.1,-9508.2,-7524.7,-6170.4,-1928.7,-5029.6,-7006.8
-5099.3,-3822.6,-9493.5,-7513.3,-6152.8,-1909.5,-5011.6,-7005.9
-5066.6,-3792.2,-9471,-7497.3,-6124.6,-1879.7,-4984.3,-7002.9
-5058.2,-3784.3,-9457.6,-7476.3,-6111.8,-1870.1,-4972.5,-6989.9
-5071.5,-3796.2,-9466,-7476.6,-6121.9,-1882.1,-4982.2,-6984.4
-5095.7,-3816.9,-9483.8,-7489,-6138.1,-1898.3,-4997.1,-6990.7
-5124.5,-3847.2,-9506.9,-7513,-6173.5,-1932.7,-5030.5,-7023.4
-5138.8,-3863.7,-9520.6,-7531.1,-6190.2,-1949,-5047,-7037.5
-5134.6,-3861,-9520.8,-7533.1,-6186.2,-1944.4,-5043.8,-7035.8
-5119.8,-3846.5,-9509,-7523,-6175.4,-1931.4,-5031.6,-7029.4
-5092.9,-3815,-9475.5,-7493.9,-6147.7,-1900.8,-5001.8,-7011.3
-5073.1,-3793.6,-9453,-7470.8,-6120.4,-1876.9,-4977.5,-6977.3
-5074.1,-3795.3,-9451.2,-7470,-6120.5,-1878.8,-4978.3,-6965.7
-5086.5,-3806.4,-9461.2,-7477.9,-6133,-1892.1,-4990.9,-6969.6
-5112.2,-3832.4,-9484.6,-7495.1,-6156.3,-1916.9,-5014.5,-6979.1
-5132,-3855.8,-9508.6,-7518.3,-6178.5,-1938.1,-5035.5,-6994.2
-5133.8,-3858.9,-9517.4,-7527.8,-6185.1,-1943,-5041.5,-7005.2
-5123.4,-3846.8,-9512,-7524.4,-6177.9,-1933.9,-5033.8,-7010.7
-5099.3,-3822,-9492,-7507.1,-6158.4,-1912.2,-5013.8,-7008
-5074.5,-3796.7,-9468.7,-7484,-6131,-1887.1,-4989.7,-6996.5
-5063.6,-3784.8,-9454.4,-7467.2,-6116.7,-1875.3,-4976.7,-6985.1
-5074.6,-3794,-9458.8,-7468,-6123.2,-1883.8,-4983.5,-6980.8
-5091.4,-3811.5,-9473,-7479.4,-6138.9,-1900.6,-4998.9,-6982.5
-5117.7,-3841.2,-9497.3,-7502.8,-6167.5,-1929.1,-5026,-6993.4
-5131.9,-3859.7,-9514.7,-7523.9,-6186.4,-1946.1,-5043.9,-7007
-5128.3,-3855.7,-9518.6,-7528.9,-6181.6,-1940.2,-5040,-7013.4
-5111,-3838.6,-9510.1,-7520.5,-6165.4,-1924,-5025.5,-7008.5
-5084,-3811.2,-9484.8,-7498.2,-6141.8,-1898.4,-5001,-6998.6
-5062.5,-3789.1,-9457.5,-7473.1,-6119.1,-1876.1,-4978.6,-6985.7
-5067.1,-3794,-9454.4,-7466.4,-6118.2,-1877.1,-4977.7,-6978
-5078,-3807.6,-9466.8,-7476.3,-6128.6,-1888.7,-4988.1,-6973
-5099.9,-3827,-9486.5,-7492.4,-6149.5,-1910,-5008.5,-6977.8
-5124.9,-3850.7,-9508.1,-7512.7,-6174.4,-1933.8,-5032.1,-6992.2
-5128.7,-3858,-9516.9,-7526.7,-6181.8,-1939.4,-5038.9,-7006.5
-5116.8,-3847.2,-9512.8,-7531.2,-6171.3,-1926.8,-5029.8,-7018.9
-5100.6,-3833.2,-9496,-7514.6,-6157.9,-1912.6,-5017.5,-7016.3
-5072.3,-3802.7,-9468,-7486,-6130.3,-1884.1,-4989.4,-7003.1
-5060.3,-3788.4,-9451.1,-7464.9,-6117.1,-1872,-4976.3,-6994.4
-5071.1,-3799.1,-9452.8,-7464.3,-6129.9,-1884.4,-4988.4,-7011.3
-5095.1,-3822.6,-9470.3,-7478.4,-6145.9,-1902.6,-5005.3,-7014.5
-5129.4,-3855.8,-9504.2,-7507.6,-6175.1,-1933.4,-5033.9,-7018.4
-5136.1,-3864.1,-9519.2,-7524.8,-6185.5,-1941.3,-5042.6,-7023.4
-5137.4,-3863.5,-9517.4,-7519.1,-6186.3,-1941.5,-5042.1,-7019.2
-5126.2,-3850.4,-9512.9,-7512.1,-6173.6,-1929.3,-5031.2,-7000.8
-5093.6,-3820.8,-9488.5,-7495.2,-6147,-1901.4,-5005.6,-6989
-5068.1,-3795.3,-9462.2,-7474.1,-6122.7,-1877.7,-4982,-6980.8
-5068.5,-3794.2,-9455.6,-7463.9,-6120,-1877.1,-4980.1,-6974.5
-5081.3,-3804.7,-9463.1,-7469.4,-6129,-1887.9,-4989.2,-6974.9
-5104.7,-3827.4,-9483.5,-7486.6,-6150,-1910.6,-5009.4,-6982.2
-5129.7,-3854.7,-9513.3,-7512.5,-6176,-1935.6,-5033.5,-6997
-5133,-3860,-9524.6,-7523.7,-6184.6,-1941,-5040.6,-7009.2
-5125.9,-3850.5,-9516.8,-7519.6,-6177.3,-1934.2,-5035.4,-7013.2
-5104.8,-3831.4,-9496.1,-7505.3,-6159.7,-1915.3,-5019,-7010.7
-5075.5,-3803.6,-9468.8,-7482.4,-6130.9,-1886.4,-4992.1,-6999
-5060.9,-3790.5,-9453.9,-7464.8,-6114.4,-1873.1,-4977.8,-6985.2
-5068.9,-3799.8,-9457.2,-7464.3,-6120.3,-1880.5,-4984,-6979.2
-5088.7,-3815.9,-9471.4,-7472.8,-6135.7,-1895.5,-4998.2,-6980.3
-5117,-3844.9,-9497.6,-7493.8,-6163.1,-1924.6,-5024.6,-6989
-5134.6,-3861.2,-9517.4,-7515.2,-6179.5,-1941.8,-5041.2,-6998.2
-5131.3,-3857.1,-9518.9,-7519,-6179.3,-1938.9,-5040.8,-7003.3
-5118.9,-3844,-9510.2,-7512.5,-6169,-1925.7,-5029.9,-7004
-5092.6,-3817.4,-9486.9,-7494.1,-6144.8,-1899.6,-5005.9,-6996.3
-5066.9,-3792.2,-9462.8,-7472.8,-6118,-1874.3,-4981.1,-6978.1
-5064,-3790.3,-9454.3,-7462.3,-6112.3,-1871.6,-4975.6,-6966.4
-5074.7,-3805.4,-9462.7,-7468.2,-6122,-1883.1,-4985,-6966.5
-5101.8,-3835.5,-9488.2,-7491.9,-6145,-1907.2,-5007,-6976.9
-5125.4,-3861.8,-9515.6,-7523.9,-6165.7,-1927.4,-5027.1,-6998.6
-5138.9,-3874.9,-9524.1,-7532,-6174.5,-1936.1,-5036.3,-7009.8
-5129.6,-3864.3,-9516.2,-7525.6,-6171.1,-1931.4,-5033.2,-7012.8
-5107.7,-3837.9,-9499.6,-7511.4,-6159.8,-1918.2,-5021.7,-7015.3
-5078.7,-3806.7,-9472.2,-7487.4,-6143.9,-1899.2,-5005.5,-7027.9
-5064.6,-3790.2,-9454.3,-7465.4,-6126,-1882.1,-4988.4,-7016.2
-5072.4,-3799.4,-9457.9,-7461.9,-6127.1,-1886.6,-4989.7,-7001.5
-5087.6,-3817.9,-9470.2,-7472.2,-6141.9,-1901.8,-5002.6,-6996.8
-5127,-3848.9,-9493.8,-7488.9,-6170.3,-1932.2,-5028.9,-6997.1
-5147.7,-3864.9,-9520.9,-7513,-6183.1,-1945.9,-5043.4,-6990.5
-5138.4,-3861.3,-9524.8,-7522.3,-6180.1,-1940.2,-5040.9,-6993
-5125.5,-3848.9,-9518.9,-7517.2,-6169.1,-1927.5,-5029.7,-6997.8
-5099.1,-3821.3,-9499.3,-7497.7,-6144.3,-1902.4,-5005.7,-6994.4
-5075.2,-3795.9,-9471.7,-7472.6,-6119.6,-1878.8,-4982.9,-6983.8
-5072.6,-3790.5,-9458.5,-7457.7,-6114.1,-1875,-4977.8,-6975.1
-5085.1,-3804,-9466.1,-7462.7,-6126.3,-1887.5,-4988.5,-6975.3
-5102.7,-3824.5,-9482.6,-7476.6,-6144.8,-1905.2,-5005.4,-6979.9
-5132,-3853.3,-9511.8,-7502.9,-6170.8,-1934.3,-5033.2,-6992.1
-5143.8,-3861.8,-9525.2,-7520.7,-6181.3,-1943.9,-5044.2,-7005
-5131.6,-3854.1,-9517.6,-7520.6,-6174.8,-1936,-5038.1,-7009.8
-5113.7,-3838.8,-9501.1,-7509.6,-6158,-1918.1,-5022.1,-7006.6
-5085.9,-3810,-9474.5,-7486.7,-6130.6,-1889.4,-4995.2,-6995.5
-5068.5,-3791.2,-9457,-7466,-6112.5,-1872.5,-4977.1,-6983.5
-5076,-3794.1,-9461.9,-7462.4,-6113.4,-1876.4,-4978.3,-6976.6
-5089.8,-3811.7,-9474.6,-7474.6,-6124.5,-1890.8,-4990.6,-6973.2
-5115.1,-3836.9,-9495,-7493.8,-6151.6,-1917.9,-5016.7,-6980.7
-5135.7,-3857.2,-9514.3,-7514.4,-6175.9,-1940.1,-5039.8,-6995.5
-5135.5,-3857.3,-9517.3,-7522.4,-6177.9,-1940,-5042.1,-7005.3
-5123.6,-3846.7,-9511.3,-7518.5,-6166.3,-1928.1,-5032.4,-7002.9
-5098.5,-3820.7,-9490,-7499.6,-6141.6,-1901.2,-5007.9,-6994.3
-5072.4,-3795.2,-9463.9,-7472.9,-6115.6,-1875.4,-4982.6,-6981.7
-5071.3,-3794.1,-9459.7,-7465.4,-6111.8,-1873.7,-4978.6,-6975.8
-5077.1,-3803.9,-9471.6,-7478.2,-6117.7,-1880.4,-4984,-6983.2
-5097.3,-3823.7,-9489.2,-7486,-6134.8,-1901.5,-5002.5,-6986.7
-5127.7,-3850.1,-9515.9,-7506.3,-6164.2,-1931.4,-5030.6,-6996.6
-5138.7,-3862.4,-9526.6,-7523.4,-6181.1,-1946.5,-5046.3,-7013.2
-5131.9,-3858.4,-9516.8,-7524.3,-6184.1,-1945.6,-5048.2,-7039.9
-5119.3,-3845.7,-9503.1,-7516.2,-6170.5,-1930.4,-5034.8,-7039.4
-5089.7,-3815,-9476.1,-7493.1,-6139.2,-1898.3,-5004,-7021.4
-5073.3,-3797.2,-9456.3,-7469.1,-6121.4,-1880.7,-4986,-7002.7
-5076.6,-3799.2,-9448.5,-7452.4,-6121.8,-1881.9,-4984.7,-6984.5
-5098.1,-3820.8,-9469.3,-7468.2,-6135.7,-1899.4,-5000.3,-6968
-5116.8,-3842.4,-9491.7,-7492.4,-6156.8,-1921,-5021.4,-6972.8
-5135.4,-3863.1,-9514,-7516,-6178.6,-1941.7,-5042.8,-6989.6
-5133.9,-3861.5,-9519.8,-7524.1,-6181.2,-1942.5,-5045.5,-7000.8
-5118.8,-3850.2,-9511,-7519.2,-6173.4,-1932.3,-5037.4,-7005
-5099.7,-3826.8,-9491.2,-7502.6,-6151.1,-1907.7,-5014.8,-7002
-5079.3,-3799.5,-9467.5,-7476.9,-6125.1,-1880.7,-4989.2,-6991.4
-5066.4,-3788.8,-9452.3,-7459.3,-6115.7,-1872,-4979.1,-6980.7
-5077.8,-3801.3,-9460.8,-7464.2,-6124.5,-1884.6,-4989.2,-6977.4
-5098.7,-3820.2,-9478,-7478.8,-6139.7,-1902.2,-5004.7,-6981.1
-5126.7,-3847.5,-9503.3,-7501.9,-6165,-1928.9,-5029.5,-6992.1
-5142,-3863.6,-9520.7,-7519.7,-6180,-1943.7,-5044.8,-7003.8
-5132.6,-3854.6,-9520.6,-7520.9,-6173.9,-1936.2,-5039.2,-7009.5
-5116.9,-3840.2,-9511.6,-7512.1,-6159.3,-1921.9,-5025.9,-7009.1
-5090.8,-3812.4,-9487.4,-7493.2,-6133.2,-1895.4,-5000.9,-7001.1
-5066.9,-3792.1,-9462.2,-7472.2,-6107.3,-1869.7,-4976,-6982.4
-5071.5,-3804.2,-9461.2,-7468.4,-6110.2,-1873.3,-4977.7,-6972.2
-5087.5,-3820.1,-9470,-7477.7,-6119.4,-1882.6,-4985.7,-6971.4
-5115.2,-3848.6,-9491.1,-7497.6,-6142.7,-1907.2,-5009.1,-6977.8
-5137.7,-3868.7,-9514.5,-7521.2,-6164.5,-1929.8,-5031.5,-6985.5
-5137.2,-3865.6,-9518.4,-7528.9,-6172.2,-1935.8,-5038.3,-6994.4
-5123.1,-3850,-9508,-7520.3,-6167.5,-1929.4,-5033.2,-7000.5
-5104.6,-3826.9,-9493.8,-7508.1,-6154.8,-1914.5,-5020.2,-7003.3
-5071.1,-3790.3,-9469.9,-7488.2,-6125.9,-1883.4,-4992.5,-7002.1
-5063.3,-3782.3,-9456.4,-7463.1,-6115,-1874.9,-4983,-6990.3
-5076.7,-3796.2,-9462.4,-7463.9,-6124.6,-1886.3,-4992.4,-6984.9
-5098.8,-3815.4,-9476.9,-7478.2,-6143.5,-1905.1,-5010.2,-6991.3
-5127.2,-3845.4,-9500.8,-7502.4,-6178.1,-1938.2,-5042.5,-7024.2
-5140.9,-3859.3,-9516.6,-7518.3,-6190,-1950.6,-5055.2,-7036.6
-5137.3,-3853.9,-9517,-7521.7,-6182.8,-1942.7,-5048.9,-7034.2
-5125.6,-3837.9,-9506.7,-7512.1,-6172,-1930.5,-5037.3,-7027.7
-5099.6,-3809.6,-9478.7,-7482.3,-6147,-1903.8,-5010.6,-7008.4
-5081.5,-3790.7,-9464,-7461.6,-6124.8,-1883.9,-4990.7,-6976.5
-5087.5,-3784.8,-9464.4,-7453.8,-6119.9,-1878.8,-4985.9,-6962.6
-5099.3,-3796.3,-9475.3,-7460.7,-6130.5,-1890.5,-4996.8,-6965.5
-5122.2,-3824.8,-9497.3,-7480.1,-6154.6,-1916.3,-5021.4,-6975.4
-5144.3,-3850.1,-9520.8,-7505.3,-6177.7,-1939.5,-5044,-6989.9
-5144.6,-3848.7,-9523.6,-7512.1,-6180.7,-1940.8,-5046.5,-6999.3
-5138.3,-3842.7,-9520.7,-7511,-6178.4,-1935.6,-5042.7,-7004.6
-5111.4,-3818.9,-9502.1,-7493.8,-6156.8,-1911.9,-5020.1,-7000.9
-5087.4,-3794.4,-9480.4,-7470.8,-6129.5,-1887.1,-4995,-6989
-5075,-3782.1,-9464.4,-7454.8,-6114.8,-1874.4,-4980.7,-6976.8
-5082.6,-3792.5,-9466.2,-7457,-6122,-1882.9,-4988.5,-6972.2
-5101.2,-3811.3,-9479.2,-7469.4,-6138.1,-1900.5,-5005.7,-6973.5
-5127,-3838.8,-9503.3,-7493.2,-6165.6,-1927.4,-5033,-6983.9
-5145.4,-3857.7,-9521.4,-7513.5,-6182.4,-1943.4,-5049.7,-6996.8
-5139.8,-3853.4,-9522.3,-7519.4,-6179.7,-1940.1,-5047.3,-7003.8
-5122.7,-3834.8,-9511.6,-7511.4,-6162.9,-1923.6,-5031.6,-6999.6
-5098.8,-3808.7,-9491.2,-7489.3,-6139.9,-1898.3,-5007.8,-6989.6
-5076.5,-3786.4,-9468.1,-7462.8,-6117.9,-1875.2,-4985.6,-6976.9
-5077.4,-3789.9,-9462.4,-7452.9,-6115.9,-1874.6,-4983.6,-6967.5
-5089.7,-3804.1,-9472.8,-7462.1,-6125.4,-1885.5,-4993.9,-6961.5
-5112,-3826.4,-9490.7,-7478.5,-6146.4,-1907.7,-5014.5,-6965.6
-5136.7,-3850,-9512.5,-7500.9,-6171.4,-1931.4,-5037.7,-6979.6
-5151.4,-3862.3,-9529.3,-7523.4,-6185.1,-1943.6,-5050,-6996.4
-5133.3,-3847.1,-9523.8,-7529.3,-6173.2,-1929.7,-5038.7,-7010.8
-5114.9,-3827.3,-9504.2,-7507.4,-6155.8,-1912,-5021.8,-7007.2
-5089.7,-3799.2,-9477.5,-7480.5,-6131.5,-1887.7,-4998.1,-6994.1
-5077.9,-3789.8,-9463.6,-7466.4,-6121.9,-1880,-4988.7,-6987.2
-5079.7,-3795.7,-9464.2,-7465.8,-6129.5,-1887.3,-4995.1,-7003.1
-5097.5,-3813.7,-9484.3,-7475.4,-6142.8,-1903.3,-5008.8,-7005.3
-5133.7,-3844,-9516.1,-7499.9,-6170.9,-1933.5,-5036.3,-7007.4
-5140.9,-3852.6,-9521.2,-7512.9,-6183.6,-1943.1,-5046.7,-7011.7
-5144.8,-3861.4,-9515.1,-7512.9,-6190.4,-1949.6,-5052,-7009.8
-5141.7,-3848.6,-9511.3,-7510,-6173.9,-1934.3,-5038.7,-6992.2
-5106.5,-3818,-9488.4,-7494.6,-6146.5,-1905.8,-5012.9,-6981.7
-5076.1,-3792.6,-9462.6,-7472,-6121,-1879.7,-4988.5,-6973.9
-5075.4,-3791.2,-9457.1,-7461.7,-6117,-1877,-4985.2,-6967.1
-5086.2,-3801.7,-9464.8,-7467.1,-6127.9,-1889,-4995,-6967.5
-5111.1,-3825.1,-9484.4,-7482.4,-6148.8,-1911.8,-5015.7,-6975.3
-5139.1,-3853,-9511.2,-7509,-6177.7,-1939.3,-5042.5,-6991.1
-5142.6,-3854.4,-9519.7,-7519.8,-6185,-1943.6,-5048.3,-7002.6
-5137.3,-3848.6,-9520.6,-7518.7,-6177.2,-1936.5,-5042.9,-7005.8
-5117.5,-3829.6,-9506.3,-7507.4,-6157.2,-1914.6,-5024,-7001.2
-5089.8,-3800.5,-9480.2,-7484.2,-6129.4,-1886.1,-4997,-6988.1
-5074.8,-3785.8,-9462.9,-7463.8,-6113.8,-1872.8,-4982.8,-6973.2
-5083,-3794.1,-9465.8,-7461.7,-6118.4,-1879.6,-4987.1,-6967.1
-5101.2,-3813.7,-9478.5,-7472.5,-6132.3,-1894.8,-5000.9,-6969.2
-5130.6,-3843.6,-9504.5,-7496.7,-6158.2,-1921.8,-5026.3,-6978.5
-5148.5,-3860.2,-9526.2,-7518.3,-6174.4,-1937.5,-5041.8,-6986.3
-5145.4,-3857.4,-9528.8,-7522.1,-6175.4,-1935.9,-5041.8,-6992.2
-5132.3,-3847.2,-9518,-7516.7,-6166.3,-1925.5,-5032.9,-6994.4
-5105,-3822.8,-9496.4,-7499.9,-6142.4,-1900.1,-5009.8,-6987.9
-5080.5,-3799.7,-9477,-7477.3,-6119,-1877.2,-4987.8,-6971.3
-5073.2,-3789.9,-9461.4,-7458.4,-6109.5,-1869.5,-4977.6,-6958
-5086.8,-3802.9,-9465.4,-7461,-6122.4,-1883.6,-4988.6,-6958
-5109.7,-3825.8,-9485,-7481.3,-6145,-1907,-5010.2,-6969.5
-5128.5,-3846.8,-9510.7,-7513.1,-6167.5,-1928.9,-5032.1,-6993.5
-5143.8,-3859.5,-9523.3,-7523.5,-6181.9,-1944.2,-5047.2,-7007.2
-5136.1,-3850,-9518.9,-7520,-6177.2,-1937.5,-5042,-7011.3
-5115,-3830.3,-9500,-7507.7,-6161.7,-1919.8,-5026.4,-7012.8
-5087.1,-3803.7,-9469.6,-7482.3,-6140.7,-1896.7,-5005,-7021.9
-5078.3,-3792.8,-9456.2,-7462.5,-6126.4,-1885.5,-4992.2,-7010
-5085.4,-3800.8,-9462.5,-7463.9,-6128.5,-1890.8,-4995.1,-6996.2
-5098.9,-3816.3,-9475.9,-7476.7,-6142,-1904.5,-5007.6,-6992.4
-5124,-3842.5,-9491.5,-7489.8,-6166,-1930.1,-5029.9,-6992.6
-5150.2,-3864.6,-9519.2,-7515.8,-6185.1,-1950.7,-5051.3,-6989
-5147.1,-3856.6,-9522.6,-7524.9,-6181.2,-1944,-5048.4,-6993
-5132.3,-3842.9,-9512.8,-7517.7,-6169.4,-1931.3,-5037.2,-6996.5
-5104.4,-3820.5,-9491.5,-7498.9,-6145.4,-1906.7,-5013.5,-6991.3
-5079.2,-3797.4,-9468,-7476.2,-6119.6,-1881.5,-4988.5,-6979.8
-5077.5,-3793,-9459.6,-7462.2,-6111.1,-1874.4,-4980.3,-6969.9
-5092,-3810.4,-9467.1,-7468.3,-6121.9,-1884.7,-4989.3,-6968.3
-5110.7,-3829.1,-9482.3,-7482.6,-6140.7,-1902.3,-5006,-6973.2
-5137.5,-3851.8,-9509.4,-7506.3,-6168.2,-1932.5,-5034.5,-6985.5
-5146.2,-3856.8,-9525,-7522.1,-6183.2,-1946.7,-5048.7,-6999.3
-5137.6,-3844.8,-9521.8,-7521.4,-6177.5,-1939.8,-5043.1,-7004.7
-5118.8,-3826.7,-9505.7,-7510.5,-6161.1,-1923.7,-5027.9,-7002.3
-5090.2,-3798.7,-9479.5,-7487.5,-6135.4,-1896.1,-5002.4,-6993.2
-5073.1,-3779.1,-9461.7,-7464.1,-6116.7,-1876.6,-4983.6,-6979.8
-5081.3,-3785.1,-9468.5,-7459.8,-6119.6,-1881,-4986.6,-6972.2
-5096.8,-3798.9,-9479.3,-7468.3,-6128.2,-1891.5,-4995.7,-6968.1
-5130,-3829.8,-9499.1,-7487,-6154.6,-1919.2,-5021.5,-6974.7
-5149.7,-3850.9,-9515.4,-7509.5,-6177.7,-1942,-5043.7,-6989.8
-5151.4,-3847.7,-9519.9,-7517.4,-6181.4,-1943.2,-5047.5,-6999.6
-5136.6,-3835,-9514.9,-7513.2,-6170,-1931.3,-5037.6,-6996.7
-5110.9,-3812.4,-9493.7,-7497.6,-6145.8,-1905.5,-5013.5,-6989.5
-5081.9,-3786.2,-9466.6,-7472.6,-6120.9,-1880.8,-4989.2,-6978.6
-5078.5,-3781.5,-9461.7,-7463.6,-6118,-1879.2,-4986.8,-6974.6
-5083.1,-3787.3,-9471.3,-7472.3,-6123.8,-1885.1,-4992.7,-6982.6
-5106.8,-3809.6,-9484.3,-7475.4,-6140.6,-1905.2,-5010.4,-6985.9
-5141.3,-3840.3,-9508.9,-7494.5,-6168.1,-1934.1,-5036.8,-6995.6
-5155.5,-3853.3,-9522.7,-7513.4,-6183.1,-1946.9,-5050.3,-7012.1
-5147.6,-3848.5,-9516.8,-7515.2,-6183.7,-1943.3,-5048.8,-7037.9
-5136.5,-3838.1,-9510.4,-7509.5,-6174.1,-1931.9,-5038.7,-7038.7
-5108.4,-3809.2,-9487.4,-7490.6,-6144.6,-1900.7,-5009.9,-7020.1
-5081.8,-3784.1,-9461,-7465.3,-6117.3,-1874.2,-4983.3,-6998.1
-5094.2,-3794.4,-9457.5,-7451.2,-6120.9,-1882.1,-4986.9,-6979.9
-5110.2,-3810.7,-9477,-7466.6,-6130.7,-1895.8,-4998.8,-6963.4
-5133.7,-3832.5,-9503.4,-7492.4,-6154.5,-1921,-5022.9,-6970
-5151.1,-3851.3,-9526.2,-7515.5,-6173.7,-1938.6,-5041.3,-6987.1
-5147.7,-3849.8,-9527.7,-7520.1,-6173.3,-1936.7,-5041,-6996.3
-5143.5,-3843.2,-9523.1,-7518.3,-6169.4,-1931.8,-5037.2,-7002
-5118.7,-3818.1,-9501.3,-7501,-6147.4,-1908.1,-5015.4,-6999.2
-5092.5,-3794.8,-9474.9,-7476.5,-6124.5,-1884.2,-4992.3,-6989.4
-5079.6,-3783.7,-9458.3,-7457.6,-6112.3,-1871.7,-4979.3,-6977.4
-5092.4,-3796.5,-9466.1,-7460.9,-6121,-1883.2,-4988.8,-6973
-5110.8,-3816.5,-9482,-7474,-6138.1,-1902.1,-5006.4,-6976.7
-5136.3,-3843.2,-9509.1,-7497.3,-6162.8,-1928.1,-5031.5,-6988.5
-5153.2,-3857.1,-9528,-7516.7,-6176.8,-1942.3,-5045.6,-7000.5
-5144.6,-3850.6,-9523.6,-7520.9,-6174.1,-1937.9,-5042.2,-7007.2
-5130.8,-3834.4,-9507.7,-7512.4,-6160.8,-1923.1,-5028.8,-7007.2
-5103.9,-3805.2,-9483.8,-7491.8,-6135,-1897.3,-5004.2,-6998.1
-5081.5,-3782.4,-9461,-7469.7,-6111.5,-1875.1,-4981.3,-6980.3
-5083.6,-3787.5,-9457.8,-7462.2,-6112.8,-1877.6,-4982.1,-6970.7
-5098.6,-3805,-9468.7,-7471.4,-6128.7,-1894.3,-4997.3,-6971.8
-5126.8,-3827.3,-9491.5,-7489.7,-6153,-1919,-5021.1,-6980.7
-5150,-3847.8,-9514.8,-7509.6,-6171,-1937.6,-5040.1,-6987.4
-5150,-3850.1,-9518.1,-7519.6,-6177,-1941.5,-5045.7,-6995.1
-5138.5,-3841,-9508.4,-7514.6,-6169.5,-1931.9,-5037.5,-6999.3
-5114.8,-3817.7,-9492.9,-7500.6,-6148.9,-1910.1,-5016.7,-6998.1
-5089.2,-3794.9,-9479.3,-7486.4,-6124.3,-1885,-4993.8,-6997.9
-5077.1,-3782,-9464.9,-7461.1,-6109.4,-1871.9,-4980.3,-6985.1
-5093.2,-3792.9,-9469.2,-7459.9,-6118.7,-1882.8,-4988.7,-6977.4
-5110.7,-3812.2,-9479,-7473.4,-6136.2,-1900.8,-5004.9,-6982.1
-5143,-3845.7,-9500.7,-7498.1,-6170.3,-1934,-5036.6,-7012.8
-5160,-3862.6,-9517.5,-7518.4,-6185.2,-1948.4,-5051.2,-7025.4
-5156.6,-3859.9,-9520.4,-7525,-6184.5,-1945.8,-5050.2,-7025.8
-5139,-3844.2,-9508.6,-7516,-6170.7,-1929.7,-5035.5,-7020.6
-5113.6,-3817.7,-9480.3,-7487.8,-6143.8,-1902.7,-5008.2,-7002.9
-5096.7,-3796.7,-9467.3,-7469.2,-6117.2,-1879.1,-4984.6,-6972.3
-5093.2,-3793.5,-9466.5,-7465.1,-6111.8,-1874.9,-4979.5,-6959.7
-5104.1,-3805.8,-9474,-7472.6,-6122,-1886.8,-4989.2,-6962.4
-5124.3,-3831.9,-9492.2,-7489.4,-6143.8,-1911.4,-5011.3,-6971.3
-5148.7,-3857.9,-9516.9,-7512.6,-6168.9,-1937.2,-5036.4,-6986.7
-5153.8,-3863.8,-9527.2,-7526.9,-6174.5,-1940.8,-5041.8,-6998.8
-5143.3,-3854.8,-9521.5,-7524.8,-6167.7,-1931.8,-5034.1,-7003.3
-5121.8,-3832.2,-9502.9,-7508.3,-6148.8,-1910.2,-5014.2,-7000
-5095.6,-3803.7,-9478.9,-7482.4,-6120.6,-1883.1,-4988.9,-6987.1
-5083.4,-3792,-9463.7,-7463.8,-6106.7,-1870.3,-4975.8,-6974.1
-5093.1,-3801.3,-9466.8,-7465.2,-6113.6,-1878.7,-4982.2,-6969
-5109.8,-3818.9,-9481.3,-7476.2,-6128.9,-1895.4,-4997.6,-6970
-5138.2,-3844.6,-9506.2,-7498.8,-6156.4,-1922.4,-5023.6,-6980.6
-5157.7,-3860.1,-9525.2,-7519,-6178.2,-1941.9,-5043.9,-6994.4
-5152.5,-3855.2,-9525.2,-7525.1,-6178.4,-1940.1,-5043.5,-7001.6
-5135.3,-3836.9,-9512.9,-7515.9,-6162.6,-1923.7,-5028.4,-6997.3
-5108.6,-3808.7,-9488.5,-7490.7,-6139.4,-1897.2,-5004.2,-6987.9
-5086.6,-3789,-9465.2,-7467.8,-6119.3,-1877,-4984.3,-6976.5
-5085.9,-3789.2,-9459.3,-7456.8,-6114.6,-1875.1,-4981.2,-6967.3
-5097.8,-3799.6,-9472.9,-7463.7,-6123.5,-1885.8,-4991.4,-6960.8
-5119.6,-3821.1,-9493.7,-7479.2,-6145.7,-1908.6,-5012.5,-6964.8
-5142.5,-3845.8,-9514.8,-7499.8,-6171.8,-1934.2,-5037,-6979.7
-5159.3,-3860.7,-9529.2,-7520.6,-6185.6,-1946.8,-5049.8,-6996.6
-5151.1,-3845,-9525.5,-7526.2,-6171.6,-1929.5,-5035.9,-7009.2
-5135.3,-3827.9,-9508.5,-7505.1,-6151.9,-1909.7,-5016.9,-7003.8
-5108.3,-3804.9,-9485.1,-7479,-6124.8,-1882.4,-4990,-6989.2
-5087.6,-3791.9,-9468,-7461.2,-6111.9,-1870.4,-4977.2,-6980.1
-5090.9,-3801.8,-9468.9,-7461.7,-6127.5,-1885.7,-4991.5,-6997.1
-5110.1,-3819.6,-9486.2,-7475.3,-6147.1,-1908,-5011.6,-7002.6
-5137.1,-3842.9,-9513,-7496.3,-6171.5,-1934.1,-5036,-7005.8
-5146.7,-3854.6,-9526.2,-7510.9,-6183.3,-1943.5,-5045.5,-7010.4
-5151.5,-3861.5,-9524.1,-7511.9,-6187.3,-1947,-5047.8,-7008
-5139.6,-3851.1,-9519,-7511.8,-6174.4,-1936,-5037.8,-6991.8
-5105.4,-3820.1,-9493.9,-7498,-6148,-1907.3,-5012.5,-6982.2
-5075.4,-3794.3,-9464.9,-7474.5,-6122.5,-1881.6,-4987.9,-6974.3
-5074.4,-3792.9,-9458.3,-7463.3,-6118.1,-1879.4,-4984.1,-6968
-5084.5,-3804.7,-9468.7,-7469.1,-6130.1,-1891.6,-4995,-6968.4
-5105.2,-3826.6,-9488.9,-7485,-6150.5,-1912.3,-5014.9,-6975.2
-5131.6,-3855.2,-9513.9,-7510.2,-6178.4,-1938.9,-5041.2,-6990.6
-5136.7,-3862.8,-9519.7,-7524.1,-6186.9,-1944.5,-5047.9,-7003.1
-5129.1,-3857.7,-9513.5,-7525.5,-6177.7,-1936.7,-5041,-7006.8
-5108.1,-3840.4,-9496.1,-7516.3,-6158.9,-1917.5,-5023.1,-7004.6
-5075.4,-3811.7,-9468.7,-7493.6,-6130.8,-1890,-4996,-6994.7
-5057.9,-3795.9,-9451.3,-7472.8,-6114.4,-1875.9,-4980.9,-6981.4
-5064.6,-3804.4,-9454.9,-7470.7,-6121,-1883.9,-4986.9,-6975.5
-5079.3,-3822.1,-9465.6,-7481.5,-6134.8,-1898.9,-4999.8,-6976.9
-5111,-3851.8,-9491,-7505.3,-6159.4,-1925.4,-5024.9,-6985.7
-5131.4,-3872.6,-9512.5,-7528.6,-6176.2,-1942.5,-5042,-6993.9
-5128.7,-3871.3,-9514.4,-7531.9,-6176.6,-1940.7,-5042,-7000.4
-5118,-3859,-9507.4,-7523.5,-6166.3,-1929,-5031.5,-7002.9
-5093.1,-3834,-9488.7,-7504.9,-6139.9,-1901.1,-5005.8,-6996
-5068.2,-3807.7,-9468.6,-7482.4,-6113.2,-1874.9,-4980.3,-6977.7
-5062.7,-3800.4,-9458.3,-7466.5,-6107.4,-1870.6,-4974.2,-6965.4
-5074.4,-3812.6,-9465.1,-7468.5,-6119.6,-1883.7,-4985.1,-6964.8
-5097.2,-3838.2,-9486.9,-7489.6,-6145.6,-1910.5,-5009.8,-6976.1
-5115.3,-3861,-9512.9,-7523.9,-6171,-1935,-5034.2,-7000.8
-5129.7,-3870.9,-9521.2,-7531.7,-6179.7,-1943.4,-5044.2,-7012
-5129.3,-3863.2,-9516.3,-7527.6,-6173.5,-1935.5,-5037.9,-7013.9
-5108.2,-3846.2,-9500.1,-7515.2,-6159.8,-1919.6,-5023.8,-7015.2
-5079.3,-3819.2,-9472.7,-7489,-6138.4,-1894.5,-5001.5,-7025.8
-5068.6,-3808.1,-9457.5,-7467.9,-6123.2,-1881.3,-4987.2,-7014.1
-5075.9,-3814.6,-9461.7,-7467.4,-6126,-1887.3,-4990.7,-7001
-5092.9,-3829.7,-9474.9,-7476.4,-6139.5,-1901.5,-5002.9,-6995.7
-5123.5,-3857.8,-9494,-7488.4,-6165.4,-1928.4,-5027.4,-6994.9
-5145.3,-3877.8,-9519.7,-7511.3,-6183.1,-1948,-5047.1,-6989.7
-5136.6,-3873.8,-9523.4,-7523.6,-6182.9,-1945,-5047.1,-6994.8
-5124,-3859.5,-9514.9,-7518.2,-6172.2,-1932.6,-5036.9,-6999.9
-5100.3,-3835.2,-9495.4,-7501.2,-6150.9,-1908.9,-5015.4,-6996.1
-5076.3,-3810,-9470.1,-7477.3,-6126,-1882.8,-4990.2,-6985.5
-5066.9,-3800.3,-9458.2,-7460.3,-6114.1,-1872.1,-4978.9,-6974.8
-5078.9,-3813.5,-9466.6,-7462.9,-6124.4,-1883.2,-4988.2,-6972.2
-5098.6,-3832.5,-9483.5,-7476.2,-6144.6,-1904.2,-5007.1,-6977.5
-5130.4,-3863.8,-9514.3,-7505.2,-6173.9,-1936.5,-5037.5,-6991.2
-5131.5,-3866.5,-9521.9,-7517.8,-6178.9,-1940.6,-5042.6,-7002.1
-5129,-3863.8,-9520.9,-7518.4,-6175.8,-1937.2,-5040.2,-7006.1
-5111.2,-3846.9,-9510.8,-7510.2,-6160.3,-1920.9,-5025.4,-7003.4
-5085.7,-3818.1,-9489.2,-7488.3,-6134.1,-1893.3,-4998.8,-6993
-5068.5,-3799.7,-9467.1,-7465.9,-6115.1,-1875.2,-4979.7,-6979.6
-5076.8,-3809.2,-9466,-7464.4,-6120.9,-1884.2,-4985.4,-6972.9
-5087.2,-3821.4,-9473.3,-7473.7,-6126.9,-1892.2,-4991.7,-6968.8
-5112.2,-3849.3,-9494.2,-7491.6,-6150.9,-1916.9,-5014.3,-6974.9
-5137,-3873.4,-9519.7,-7513.8,-6175.6,-1940.6,-5037.2,-6989.6
-5139.4,-3874.4,-9529.8,-7524,-6180,-1942.9,-5041.3,-7000.7
-5121.5,-3857,-9520.2,-7514.1,-6161.8,-1923.5,-5024.9,-6995.1
-5106.6,-3840.6,-9505.7,-7502.4,-6148,-1906.1,-5010.3,-6989.2
-5068.1,-3804,-9469.7,-7474.9,-6115.9,-1870.9,-4978,-6977
-5074,-3805.5,-9464.2,-7467.1,-6114.8,-1872.3,-4976.9,-6970.5
-5074.8,-3809.9,-9470.4,-7478.9,-6120.3,-1877.3,-4981.4,-6977.5
-5098.9,-3832.6,-9484.5,-7485.4,-6139.7,-1900.4,-5002.1,-6981.3
-5133.4,-3860.8,-9512.2,-7505,-6167.5,-1928.9,-5029.6,-6991
-5141.5,-3871.2,-9524.1,-7521.8,-6180.9,-1940.2,-5042,-7005.6
-5134.1,-3868.8,-9520.2,-7525.1,-6182.4,-1938.9,-5042.9,-7031.4
-5123.6,-3857.8,-9512.5,-7517.6,-6169.7,-1926.8,-5031.3,-7032
-5097.2,-3830.7,-9491.7,-7495.4,-6141.5,-1899.1,-5004.6,-7015.3
-5076.4,-3809.8,-9470.5,-7468.8,-6121.3,-1879.4,-4983.6,-6995.8
-5082.6,-3815.3,-9464.8,-7455.8,-6122.7,-1883,-4983.8,-6977.9
-5099.8,-3830.7,-9480.8,-7467.3,-6131.3,-1894.7,-4994,-6958.2
-5119.4,-3852.4,-9504.5,-7491,-6152.9,-1917.6,-5014.8,-6961.2
-5138.8,-3873.4,-9527,-7515.6,-6176,-1940,-5037.3,-6979.1
-5138.5,-3875.1,-9533.4,-7527,-6178.5,-1940.5,-5040.7,-6992.1
-5130.8,-3863.2,-9530.7,-7521.5,-6168.4,-1929.1,-5031.4,-6996
-5110.2,-3839.8,-9513.6,-7502.8,-6148.1,-1907.5,-5011.5,-6992.4
-5082.6,-3813.3,-9484.7,-7478.5,-6125.1,-1883.4,-4987.9,-6982.8
-5070.6,-3801.1,-9464,-7460.7,-6114.4,-1873,-4976.4,-6972.3
-5082.4,-3813,-9468.1,-7463.4,-6121.9,-1884.7,-4985.2,-6967.8
-5099.7,-3830.3,-9481.7,-7476.6,-6138,-1902.6,-5001,-6970.8
-5127.2,-3856.9,-9506.3,-7499.1,-6163.7,-1929.4,-5026.7,-6981.9
-5141.6,-3875,-9523.8,-7519.5,-6180.2,-1944.9,-5042.7,-6994.4
-5134.5,-3868.5,-9523.8,-7523.6,-6177.4,-1939.8,-5039.3,-7001.8
-5118.3,-3853.9,-9513.7,-7515.1,-6163.9,-1925.6,-5026.9,-7002.4
-5091.4,-3827.8,-9490.5,-7496.7,-6137.5,-1899.2,-5001.6,-6992.7
-5068.4,-3803.7,-9466.7,-7476.1,-6113,-1875.5,-4977.6,-6974.8
-5069.1,-3803.6,-9461.7,-7464.9,-6113.3,-1875.5,-4976.6,-6964.7
-5085.7,-3818.9,-9473.2,-7471.1,-6128.2,-1889.5,-4990,-6965.8
-5110.8,-3843.9,-9495.2,-7490.2,-6150.9,-1912.5,-5011.5,-6973.2
-5129.4,-3865.2,-9518.9,-7514.6,-6172.5,-1934.8,-5033.8,-6981.8
-5134,-3867.5,-9526.8,-7524.4,-6180.9,-1939.7,-5041.5,-6990.3
-5124.8,-3857.7,-9519.9,-7519.4,-6171.3,-1928,-5032.1,-6993.6
-5108.2,-3841.8,-9508.2,-7514,-6157.8,-1913.8,-5018.3,-6994.3
-5073.3,-3807.2,-9484.4,-7497.4,-6127.6,-1880.9,-4987.8,-6991.9
-5063.8,-3796.9,-9469.9,-7470.5,-6114.4,-1870.1,-4975.3,-6978.5
-5076.8,-3810,-9474.6,-7469,-6123.1,-1881,-4983.5,-6971.6
-5095.1,-3831.4,-9485.8,-7484,-6140.4,-1900,-5000.2,-6977.3
-5124.8,-3863.7,-9507.6,-7510.3,-6175.6,-1934,-5033.6,-7010.5
-5137.7,-3878.9,-9523.5,-7528.6,-6191.5,-1948.8,-5049.4,-7023.9
-5135,-3874.7,-9526.2,-7533.6,-6190.4,-1946.8,-5049.2,-7023.1
-5123,-3854.4,-9516.6,-7519.9,-6173.3,-1928,-5032.2,-7014.4
-5098.7,-3827.4,-9491.9,-7491.2,-6147,-1901.1,-5005.2,-6994.8
-5080.3,-3808.3,-9475.3,-7473.1,-6123,-1881.4,-4985,-6962.6
-5077.9,-3806.2,-9468.3,-7467.8,-6120,-1881.2,-4983.4,-6949.8
-5088.3,-3816,-9472,-7474.1,-6130.6,-1893.1,-4994.1,-6953.6
-5113.7,-3841.6,-9492.7,-7493.3,-6154.3,-1918.7,-5017.6,-6963.6
-5130.7,-3859.6,-9515.8,-7515,-6175.6,-1938.1,-5037.4,-6978.2
-5138.1,-3870.3,-9529.8,-7527.7,-6185.1,-1946.3,-5046.8,-6990.9
-5127.9,-3862.3,-9526.6,-7527.7,-6179.2,-1938.9,-5040.7,-6997.7
-5102.1,-3837.7,-9506.6,-7512.3,-6158.1,-1916.2,-5019.1,-6995.2
-5075.9,-3810.5,-9481.6,-7487.4,-6131.1,-1890.3,-4993.5,-6983.7
-5064.6,-3795.8,-9465.7,-7467.5,-6116.1,-1877,-4979.3,-6972.1
-5072.3,-3804.8,-9469,-7467.1,-6121.8,-1884.8,-4984.9,-6967.7
-5089.2,-3823.1,-9481,-7478.7,-6136.3,-1900.6,-4999.6,-6969.6
-5122,-3851.5,-9506.8,-7501.3,-6161.8,-1926.2,-5024.3,-6979.7
-5139.4,-3869.8,-9526.2,-7522,-6180.4,-1943.5,-5042.3,-6992.5
-5132.9,-3866.2,-9527.1,-7528.9,-6178.2,-1940.9,-5041.2,-6998.1
-5119.6,-3852.7,-9518,-7523,-6164,-1928,-5029,-6993.2
-5095,-3825.2,-9495.9,-7500.9,-6140.8,-1902.4,-5004.9,-6983.8
-5074.6,-3802.8,-9473,-7476.9,-6116.8,-1877.3,-4980.5,-6971.7
-5077.4,-3808,-9470.4,-7470.7,-6112.4,-1874.9,-4976.8,-6962
-5089.4,-3821.6,-9482.8,-7480.3,-6118.5,-1882.1,-4983.6,-6954.7
-5108.6,-3840.3,-9499.2,-7493.6,-6137.6,-1902.3,-5002.1,-6956.3
-5125.2,-3858.3,-9518.5,-7514.2,-6161.6,-1926,-5025.2,-6969.2
-5139.2,-3868.6,-9535.1,-7533.2,-6181.9,-1946.2,-5045.5,-6986
-5117.4,-3851,-9529.8,-7539.3,-6173.3,-1934.4,-5036.4,-7002.2
-5102.2,-3835.4,-9513.2,-7521.8,-6158.9,-1919.2,-5022.2,-7001
-5075.4,-3808.6,-9485.5,-7493.3,-6130.3,-1890.5,-4994.1,-6988.5
-5063.3,-3798,-9467.4,-7474.2,-6115.2,-1877.1,-4979,-6979.3
-5071.3,-3810.5,-9466.6,-7473.7,-6124.4,-1886.7,-4986.7,-6993.1
-5091.7,-3832.6,-9482.6,-7485.3,-6142.7,-1906.9,-5005.4,-6996.3
-5121,-3861.8,-9509.5,-7510.3,-6170.3,-1936,-5032.7,-7000.2
-5136.5,-3876.1,-9526.9,-7530.1,-6186.9,-1951.3,-5047.7,-7007.5
-5137.6,-3874.7,-9526.8,-7526.9,-6186,-1949.7,-5045.6,-7005.8
-5128.5,-3865.9,-9527.5,-7523.4,-6171,-1936.4,-5033.8,-6987.6
-5096.3,-3835.3,-9504.6,-7507.7,-6144,-1907,-5007.4,-6975.3
-5068.6,-3808.9,-9476.1,-7484.8,-6118.2,-1881.6,-4982.9,-6967.3
-5065.5,-3804.3,-9466.1,-7471.9,-6110.3,-1877.1,-4976.3,-6959.8
-5077.3,-3816.2,-9475.9,-7476,-6121.6,-1890.5,-4987,-6960.6
-5099,-3836.5,-9493.4,-7492.3,-6142.5,-1912.7,-5007.5,-6968.4
-5126.4,-3863.7,-9520,-7517.4,-6170.9,-1940.5,-5034.4,-6982.9
-5132.3,-3870.5,-9529.1,-7530.2,-6181.8,-1949.4,-5043.9,-6996.1
-5125.3,-3864.6,-9522.6,-7528.3,-6173.7,-1942.9,-5038.2,-7000.7
-5105.2,-3846.5,-9504.2,-7516.1,-6156.3,-1924.8,-5021.6,-6998.1
-5075.8,-3817.3,-9475.6,-7492.1,-6129.1,-1897.1,-4995.6,-6987.5
-5059.9,-3801.3,-9456.5,-7471.4,-6112.5,-1882.2,-4980.2,-6974.2
-5067,-3807.6,-9458.2,-7469.5,-6117.4,-1888,-4983.6,-6968.1
-5082.9,-3822,-9473.2,-7479.8,-6132.5,-1903.9,-4998,-6970.1
-5111.4,-3849.7,-9499.8,-7501.9,-6156.9,-1929.3,-5022.4,-6978.8
-5131,-3869.8,-9520.6,-7525.2,-6176.6,-1948.1,-5042.1,-6987.7
-5128.3,-3868.3,-9523.1,-7529.3,-6178.4,-1946.4,-5043,-6994.9
-5114.3,-3855.2,-9512.7,-7521.8,-6169.5,-1935.5,-5033.8,-6997.5
-5091.1,-3829.8,-9491.5,-7503.6,-6146.6,-1910.5,-5011.3,-6991.9
-5068.9,-3805.1,-9470.8,-7481,-6119,-1883.3,-4985.2,-6974
-5066.4,-3801.9,-9463.9,-7469.7,-6115.1,-1881.5,-4981.1,-6962.1
-5072.4,-3807.6,-9467.3,-7472.1,-6118.9,-1885.6,-4984.8,-6959.3
-5099,-3837.7,-9491.5,-7494.1,-6142,-1910.3,-5007.7,-6966.9
-5114.1,-3857.8,-9519.6,-7524.9,-6162.9,-1930.4,-5027.5,-6988.1
-5128.3,-3872.4,-9532.9,-7533.2,-6175.5,-1943.9,-5041.1,-6999.1
-5123.5,-3866.7,-9526.7,-7532,-6173.7,-1940,-5038.8,-7003
-5107.3,-3848,-9506.4,-7520.2,-6160.1,-1924.3,-5025.4,-7004.7
-5078.1,-3819.8,-9477.1,-7496.2,-6139.6,-1900.8,-5004.2,-7015.9
-5068.5,-3808.1,-9463.3,-7476.4,-6122.1,-1885.2,-4988.1,-7004.7
-5074.7,-3814.5,-9467.3,-7475.3,-6125.7,-1891,-4991.6,-6991.2
-5087,-3826.4,-9477.8,-7483.6,-6140.5,-1905.2,-5004.3,-6986.4
-5115.7,-3852,-9496.6,-7495.4,-6164.9,-1930.9,-5027.3,-6985.1
-5136.5,-3872.8,-9523.2,-7519.2,-6181.8,-1950.1,-5046.2,-6979.5
-5131.9,-3870.9,-9527.8,-7530.8,-6182.3,-1948.6,-5047.4,-6983.9
-5118.7,-3859.3,-9518.9,-7526.7,-6172.8,-1936.7,-5037.8,-6989.7
-5094,-3833.5,-9497.6,-7507.4,-6149.6,-1912.4,-5015.6,-6985.9
-5069.8,-3808.3,-9472.1,-7482.6,-6123.5,-1886,-4990.4,-6974.3
-5063.5,-3802.4,-9461.5,-7467.7,-6115,-1879.2,-4982.3,-6964.6
-5076.2,-3815.2,-9470.6,-7472.2,-6126.2,-1891.1,-4992.3,-6964.3
-5095,-3832.5,-9485.6,-7485.6,-6143,-1906.6,-5007,-6969.1
-5124.5,-3862.2,-9514.7,-7512.3,-6168.6,-1934.3,-5033.2,-6980.2
-5135.5,-3872.4,-9530.7,-7530.8,-6180.1,-1945.3,-5044.6,-6992.5
-5127.1,-3863.4,-9528.1,-7530.8,-6172.3,-1937.5,-5037.9,-6997
-5111.4,-3848.8,-9516.2,-7520.5,-6157.1,-1921.9,-5022.9,-6993.6
-5083.4,-3821.9,-9491.4,-7499.2,-6131.3,-1894.1,-4996.6,-6982.9
-5065.8,-3803.4,-9470.8,-7477.1,-6113.3,-1875.3,-4978.4,-6969.5
-5071.6,-3808.5,-9469.1,-7472.5,-6114.5,-1878.4,-4979.3,-6961.1
-5086,-3823.4,-9481.1,-7482.1,-6124.2,-1891.1,-4989.4,-6956.6
-5110.3,-3848.7,-9505.5,-7498.9,-6149.2,-1916.8,-5013.3,-6963.4
-5131.6,-3870.9,-9530.4,-7520,-6173.1,-1940.2,-5036.5,-6978.2
-5132,-3873.3,-9535.1,-7529.7,-6177.2,-1942.3,-5040.7,-6989.1
-5117.9,-3864,-9524.7,-7527,-6168.2,-1932.8,-5033.3,-6987.7
-5099.8,-3841.2,-9502.3,-7512.8,-6148.5,-1910.7,-5012.8,-6981.5
-5076.6,-3808.8,-9473.4,-7484.1,-6120.3,-1882.1,-4984.2,-6970.5
-5066.5,-3802.3,-9464,-7471.5,-6112.5,-1875.6,-4976.5,-6964
-5073.2,-3812.2,-9475.9,-7483.9,-6118.9,-1882.2,-4982.2,-6970.5
-5092.2,-3827.5,-9487.8,-7489.4,-6132.6,-1898.2,-4996.8,-6971.9
-5128.7,-3860,-9514.3,-7510.6,-6163.5,-1931,-5027.7,-6980.6
-5141.2,-3873.5,-9529,-7528.4,-6180.1,-1945.4,-5043.3,-6996.1
-5133.1,-3868.2,-9523.6,-7529.3,-6181.3,-1943.2,-5043.1,-7022.6
-5124.4,-3857.8,-9515.5,-7521.6,-6170.2,-1933,-5033,-7024
-5097.7,-3830.3,-9493.4,-7502.4,-6142.6,-1905.1,-5006.4,-7007.3
-5074.9,-3810.8,-9471.6,-7480.7,-6122,-1884.9,-4985.4,-6988.3
-5077.7,-3814.4,-9464.5,-7465.1,-6121.3,-1886,-4983.3,-6971
-5093.9,-3831.1,-9480.8,-7475.1,-6130.8,-1899.9,-4994.7,-6951.6
-5113.5,-3851.6,-9502.1,-7495.5,-6150.4,-1920,-5014,-6954.7
-5136.4,-3872.5,-9524.1,-7518.2,-6175.4,-1944.2,-5038,-6972.2
-5138.2,-3874.5,-9531.5,-7528.6,-6180.7,-1947.5,-5043.3,-6985.5
-5126.1,-3864.9,-9526.7,-7524.7,-6171.1,-1936.9,-5034.2,-6989.3
-5102.6,-3843.3,-9512.3,-7511.7,-6150.8,-1915.3,-5014.1,-6985.6
-5078.7,-3817.2,-9487.4,-7487.7,-6126.1,-1889.4,-4988.8,-6975.2
-5064.4,-3805.2,-9466.7,-7467.5,-6113.9,-1877.7,-4975.9,-6963.9
-5076.4,-3818.8,-9470.4,-7470.7,-6121.9,-1888.5,-4985.7,-6959.8
-5093.3,-3833.5,-9482.8,-7482.4,-6137.7,-1903.9,-5001.3,-6963
-5121.7,-3861.8,-9508.4,-7506.4,-6164.8,-1932.2,-5027.3,-6974.1
-5137.4,-3878,-9525.3,-7527.3,-6179.5,-1947.3,-5042.4,-6986.5
-5133.5,-3871.5,-9523.3,-7529,-6176.5,-1941.7,-5038.5,-6993.3
-5121.5,-3859.4,-9512.5,-7520.1,-6165.5,-1928.3,-5027,-6993.1
-5094.4,-3832.3,-9492.1,-7500.7,-6140.7,-1901.5,-5003,-6984.8
-5068.1,-3809.6,-9471.3,-7479.7,-6114.3,-1876,-4978.2,-6968.1
-5068,-3811.8,-9468.8,-7470.3,-6114.7,-1877.7,-4977.5,-6957.9
-5079.6,-3823.3,-9476.3,-7476.3,-6127.4,-1890,-4989,-6958.3
-5109.6,-3850.9,-9497.9,-7495.2,-6152.5,-1915.9,-5013.7,-6965.5
-5134.5,-3872.8,-9524.8,-7520.2,-6172.9,-1936.6,-5034.6,-6974.4
-5135.1,-3875.4,-9531.1,-7529.4,-6177.9,-1939.8,-5039.1,-6982.2
-5121.2,-3863.3,-9521.1,-7524.6,-6169.1,-1928.8,-5029.9,-6986.8
-5107.3,-3847.6,-9508.1,-7515.3,-6156.2,-1914.9,-5017.2,-6988
-5072.1,-3811.8,-9484.2,-7500.7,-6124.8,-1881.3,-4985.7,-6987.8
-5061.3,-3802.1,-9466.9,-7474.8,-6110.7,-1871.9,-4974,-6974.6
-5072.9,-3812.2,-9474.9,-7473.8,-6118.9,-1882.8,-4982.3,-6969.2
-5088.9,-3831,-9489.8,-7483.9,-6135.1,-1900.9,-4997.7,-6975.2
-5121.5,-3864.7,-9514.7,-7508.5,-6168.4,-1933.6,-5028.9,-7007.2
-5138.7,-3881.3,-9527.7,-7528.4,-6184.5,-1947.8,-5044.7,-7020.5
-5137.1,-3879.7,-9527.9,-7534.7,-6185.5,-1946.5,-5046.1,-7020.4
-5122.8,-3863.7,-9515.1,-7525,-6175.1,-1933.6,-5033.7,-7014.4
-5100.7,-3837.8,-9489.2,-7496.1,-6150.7,-1908.8,-5007.5,-6997.5
-5082.6,-3816.4,-9474.8,-7473.6,-6121.5,-1882.7,-4981.1,-6965.7
-5077.9,-3815.9,-9473.8,-7469.3,-6114.6,-1876.5,-4975.1,-6951.4
-5086.9,-3827.2,-9482.7,-7477.6,-6124,-1886.3,-4984.1,-6953.3
-5106.7,-3849,-9501,-7493.9,-6145.3,-1909,-5005.1,-6960.4
-5130.4,-3872.2,-9526,-7516.6,-6174,-1938.2,-5032.8,-6975.8
-5136.7,-3874.7,-9537.8,-7528.2,-6186.1,-1948.5,-5043.6,-6989.8
-5127.9,-3862.7,-9531.4,-7525.9,-6180.9,-1940.9,-5036.5,-6996.7
-5104.1,-3840,-9510.6,-7510.4,-6160,-1916.3,-5014.2,-6995.1
-5080.3,-3816.6,-9484.9,-7486.9,-6131.7,-1888.9,-4988.3,-6983.2
-5065.3,-3802.9,-9468,-7469.2,-6115.8,-1874.4,-4973.3,-6970
-5072.5,-3809.3,-9472.4,-7469,-6122.2,-1884,-4980.4,-6964.4
-5088.4,-3824,-9486.2,-7478.6,-6137.1,-1901.3,-4995.8,-6965.1
-5114.6,-3850.7,-9509.6,-7501.3,-6164,-1929.1,-5022.3,-6975.1
-5133.3,-3870.8,-9529.2,-7524.5,-6184.1,-1949.1,-5041.8,-6989.3
-5130.2,-3867.6,-9531.5,-7533,-6184.2,-1948.4,-5042.5,-6998.8
-5116.6,-3852.3,-9520.4,-7526.7,-6168.9,-1932.9,-5028.1,-6996.6
-5093.8,-3826.6,-9498.9,-7503.1,-6142.7,-1905.4,-5001.9,-6987.4
-5067,-3804.4,-9474.7,-7479.6,-6117.5,-1880.5,-4977.4,-6974.4
-5064.2,-3802.5,-9468.9,-7469.3,-6113.9,-1878.3,-4973.7,-6964.3
-5076,-3814.2,-9484.2,-7475.1,-6123.3,-1890,-4984.1,-6958.5
-5099.7,-3838.6,-9506.8,-7492.3,-6145.2,-1913.8,-5005.3,-6962.8
-5123.6,-3860.7,-9526.1,-7514.2,-6168.4,-1936.2,-5026.7,-6976.6
-5138.8,-3874.6,-9536.9,-7535.3,-6183,-1948.7,-5040.5,-6992.2
-5121.1,-3860.1,-9531.2,-7541.7,-6172,-1934.5,-5029.5,-7006.3
-5100.8,-3842.5,-9510.9,-7518.6,-6150.7,-1913.9,-5010.1,-7001.7
-5077.3,-3819.9,-9486.9,-7494.9,-6129.8,-1892.6,-4989.4,-6990.2
-5061,-3802.6,-9467.1,-7472.8,-6114.3,-1877.2,-4973.6,-6980.9
-5070.3,-3813.2,-9468,-7468.4,-6126.3,-1888.8,-4984,-6996.6
-5089.9,-3832.8,-9483.8,-7478.1,-6142.5,-1906.4,-4999.9,-7000.3
-5121.6,-3863,-9513.4,-7503.2,-6169.1,-1934.1,-5026,-7003.4
-5138.5,-3878.2,-9533.9,-7524.1,-6187.5,-1950.1,-5042.5,-7010.7
-5136.6,-3872.9,-9533.2,-7521.1,-6185.6,-1946.7,-5039.7,-7008.8
-5128.9,-3866.3,-9532.3,-7519.5,-6173.2,-1936.7,-5030.3,-6991.3
-5097.1,-3837.1,-9509.1,-7504.9,-6145.6,-1907.3,-5004,-6980.4
-5068.7,-3810.8,-9481.6,-7483.4,-6119.4,-1879.9,-4978.7,-6971.5
-5066.8,-3808.1,-9472.4,-7472.7,-6112.3,-1875,-4972.1,-6963.1
-5077.8,-3819.5,-9479.6,-7475.9,-6121.8,-1885.6,-4981.2,-6961.6
-5101.8,-3841.8,-9499.2,-7489.8,-6143.4,-1907.5,-5001.9,-6967.7
-5131.3,-3868.9,-9527.4,-7512.1,-6172.6,-1936,-5029.5,-6981.8
-5137.5,-3877.1,-9537.3,-7524.3,-6185,-1945.7,-5040.5,-6994.5
-5129.2,-3868.7,-9532.2,-7523.2,-6177.8,-1939.5,-5034.6,-6999.4
-5110.1,-3848.2,-9516.3,-7510.7,-6160.6,-1921,-5017.9,-6997
-5081.6,-3820.2,-9492,-7487.3,-6132.6,-1891.7,-4990.9,-6986.4
-5064.9,-3804.9,-9477.3,-7466.4,-6112.5,-1873.5,-4972.2,-6972.6
-5070.5,-3812.8,-9479.9,-7464.2,-6116.4,-1878.9,-4975.5,-6966.7
-5089.9,-3829.7,-9490.7,-7474.6,-6129.6,-1893.7,-4988.3,-6968.1
-5118.2,-3859.7,-9512.3,-7499.7,-6154.9,-1921,-5013.7,-6977.8
-5138.1,-3879.1,-9533.3,-7525.1,-6173.3,-1939.4,-5032.4,-6986.6
-5136.1,-3877.2,-9536.3,-7531.2,-6175.8,-1938.2,-5034,-6993.4
-5125.1,-3863.2,-9527.9,-7523.6,-6166,-1925.8,-5023.9,-6995.1
-5098.7,-3839.2,-9508.7,-7505.6,-6142.8,-1902,-5001.5,-6988.5
-5074,-3814.2,-9488.7,-7482,-6115.2,-1876.2,-4976.3,-6971.5
-5068.4,-3808.9,-9477.5,-7466.4,-6108.1,-1870.2,-4968.8,-6959.6
-5080.2,-3821.4,-9481.9,-7470.1,-6120.4,-1882.4,-4979.3,-6959.7
-5103.3,-3844.6,-9499.4,-7488.9,-6143.7,-1905.8,-5001.7,-6969.1
-5122.6,-3863.4,-9522.8,-7520.9,-6164.2,-1924.6,-5021.2,-6991.2
-5135.8,-3876.5,-9532.7,-7530.1,-6174.7,-1935.4,-5032.7,-7000.7
-5132.9,-3874.4,-9531.1,-7531.1,-6173.7,-1933.5,-5032.4,-7004
-5114.7,-3855,-9515.7,-7521,-6157.5,-1916.3,-5016.9,-7006.2
-5087.6,-3828.9,-9488.9,-7499.3,-6137.6,-1892.7,-4995.1,-7016.7
-5075.5,-3816,-9472.1,-7480.9,-6121.5,-1878.1,-4980.3,-7004.4
-5080.3,-3821.8,-9473.3,-7477.2,-6122,-1881.7,-4981.5,-6989.4
-5096.5,-3839.7,-9486.8,-7485.5,-6136.3,-1896.3,-4994.7,-6984.2
-5122.8,-3865.8,-9504.9,-7496.9,-6160.6,-1921.2,-5016.6,-6983.6
-5145.1,-3885.7,-9531.6,-7520.2,-6180,-1943.1,-5037.2,-6979.2
-5139.2,-3879.3,-9536.1,-7530.5,-6180.8,-1942.4,-5038.1,-6985.5
-5125.5,-3864.4,-9528.2,-7524.2,-6172.4,-1932.5,-5030.5,-6994
-5098.3,-3839.7,-9507.3,-7505.7,-6149.2,-1907.9,-5008.3,-6991.8
-5073.4,-3813.7,-9484.6,-7480.7,-6122.1,-1881.5,-4982.1,-6980.6
-5064.9,-3806.5,-9473.1,-7464.6,-6111.9,-1874.3,-4972.9,-6970.5
-5074.9,-3819.5,-9476.2,-7468.4,-6124.5,-1888,-4985.2,-6969.8
-5094.2,-3835.6,-9488.5,-7480,-6142.5,-1905.5,-5001.9,-6975.3
-5124.9,-3864.7,-9516.7,-7504.6,-6169.2,-1935.2,-5029.4,-6986.4
-5139.2,-3876.5,-9531.3,-7524.7,-6182.6,-1947.6,-5041.9,-6998.9
-5130.8,-3866.8,-9526.9,-7525.5,-6175.5,-1939.3,-5035.2,-7003.8
-5113.2,-3849.9,-9513.8,-7514.5,-6161.7,-1924.7,-5022,-7001.4
-5085.9,-3822.7,-9489.4,-7492.3,-6137.3,-1897.9,-4997.4,-6992.3
-5066.5,-3804.6,-9467.9,-7471,-6118.6,-1880,-4978.8,-6980
-5070.3,-3810.1,-9466.7,-7467.4,-6118.6,-1883.5,-4979.3,-6972.5
-5081.6,-3824.7,-9476.3,-7476.7,-6127.8,-1895.8,-4989.3,-6968.7
-5104.6,-3848.5,-9495.9,-7493.3,-6151.8,-1919.6,-5012.1,-6975.2
-5128.2,-3872.6,-9518.5,-7517.3,-6177.6,-1943.6,-5036.5,-6989.3
-5130.7,-3873.7,-9525.6,-7530.6,-6181,-1945.2,-5039.4,-6999.9
-5127,-3858.9,-9522.2,-7526.9,-6167.5,-1932,-5028.1,-6997.6
-5100.7,-3834.3,-9502.3,-7509.7,-6147,-1909.6,-5007.4,-6991.6
-5070.8,-3808.1,-9474.4,-7481.4,-6121,-1883.5,-4982.6,-6980.5
-5067.8,-3807.5,-9470,-7472.2,-6114.3,-1878.7,-4976.3,-6974.2
-5066.7,-3811.9,-9478.4,-7484.4,-6117.6,-1881.5,-4979.3,-6980
-5089.6,-3834,-9492.5,-7491,-6134.9,-1901.8,-4997.6,-6982.2
-5119.5,-3866.5,-9517,-7512.3,-6162,-1928.9,-5022.9,-6990.3
-5132.9,-3885,-9532.2,-7532,-6177.4,-1941.9,-5036.7,-7004.9
-5124,-3877.6,-9527.1,-7532.4,-6180,-1941.9,-5038.4,-7032.1
-5114,-3858.6,-9518.7,-7519.6,-6173.1,-1935.6,-5032,-7033
-5088.4,-3825.9,-9496.3,-7496.2,-6149.7,-1911.8,-5009.1,-7017.6
-5066.4,-3801.1,-9473.5,-7471.5,-6129.4,-1891.1,-4987.8,-7000.1
-5071.4,-3800.2,-9467.1,-7456.7,-6131.3,-1894.4,-4988.6,-6984.6
-5086.4,-3812.6,-9484,-7468.1,-6138.5,-1904.1,-4998.6,-6968.2
-5106.6,-3833.2,-9507,-7490.8,-6159.3,-1925.2,-5019.3,-6973.5
-5129.4,-3857.7,-9529.4,-7513.1,-6182.8,-1947.4,-5041.5,-6990.6
-5137.4,-3862.8,-9539,-7523.7,-6190.2,-1952.6,-5048.3,-7003.2
-5127.3,-3847.8,-9535.4,-7519,-6180,-1941.4,-5038.9,-7007.3
-5096.5,-3819.4,-9517.9,-7500.1,-6155.7,-1916.6,-5015.5,-7002.9
-5070.5,-3791.6,-9494.7,-7473.9,-6130.9,-1891.8,-4990.8,-6991.5
-5063.5,-3776.9,-9477.2,-7456.3,-6122.1,-1882.2,-4980.9,-6981.8
-5078.3,-3787.2,-9479.1,-7458,-6132.3,-1895.1,-4992.2,-6977.9
-5092.8,-3800.6,-9489.6,-7469.6,-6146.9,-1910.9,-5006.9,-6980.9
-5121.9,-3833.6,-9518.6,-7495.4,-6177.5,-1942.6,-5037.7,-6994.3
-5128.6,-3844,-9529.9,-7511.5,-6186.2,-1950.7,-5047.2,-7004.4
-5126.8,-3843.1,-9530.8,-7515.5,-6187.3,-1951.9,-5048.4,-7010.5
-5112.1,-3828.8,-9520.9,-7510.3,-6178,-1941.1,-5038,-7012.5
-5084,-3801.2,-9497.7,-7491.8,-6153.8,-1916.9,-5014.6,-7005.3
-5055.1,-3771.7,-9472.6,-7466.3,-6124.6,-1888.5,-4987.1,-6987.8
-5059.9,-3774.4,-9472.9,-7455.3,-6127.6,-1893.1,-4989.5,-6979.2
-5072,-3783.7,-9482,-7460.8,-6137.8,-1904.1,-4999.3,-6979.6
-5097.2,-3805.3,-9502.2,-7478.5,-6160.5,-1928.6,-5022.3,-6987.4
-5121.3,-3828.5,-9528.7,-7503,-6183.2,-1951.9,-5045.3,-6996.5
-5124.9,-3831.3,-9537.6,-7513.5,-6191.2,-1956.7,-5052.2,-7005.9
-5112.5,-3822.5,-9527.3,-7508.3,-6185.9,-1949.3,-5046,-7012.2
-5098.8,-3807.9,-9511.9,-7500.9,-6172.6,-1935.9,-5032.7,-7015.6
-5069.1,-3773.4,-9487.2,-7484.6,-6141.3,-1902.4,-5002.3,-7016.3
-5054,-3762.8,-9468,-7457.3,-6127.6,-1890.3,-4990,-7004.1
-5062.3,-3774.8,-9472,-7453.4,-6137.5,-1900.8,-4999.2,-6997.3
-5083,-3792.9,-9490.1,-7463.3,-6154.6,-1918.6,-5015.6,-7002.9
-5110.4,-3821.5,-9513.7,-7485,-6184.2,-1947.3,-5043.4,-7034.3
-5131.8,-3844.6,-9530.9,-7505.3,-6202.4,-1966.7,-5062.4,-7047.5
-5127.1,-3839.8,-9528.2,-7512.4,-6198,-1961.3,-5058.5,-7046.4
-5114.8,-3829.5,-9515.6,-7506,-6185.7,-1948.2,-5045.5,-7039.5
-5088.8,-3805.4,-9487.2,-7479.9,-6161.1,-1921.2,-5018.9,-7022
-5069.8,-3785.8,-9473.1,-7458.7,-6134.5,-1897.6,-4995.8,-6990.2
-5065,-3782.9,-9470.8,-7452.5,-6129.3,-1893.9,-4991.2,-6976.7
-5074.4,-3791.2,-9477.3,-7458.5,-6137.3,-1901.6,-4998.5,-6977.7
-5101,-3817.6,-9496.3,-7477.4,-6159.5,-1925.8,-5020.5,-6983.9
-5127.8,-3843.2,-9521,-7502.5,-6186.2,-1951.8,-5046,-6998.3
-5130.9,-3847.5,-9528.2,-7511.6,-6191.6,-1956,-5051.4,-7009.2
-5126.3,-3843.1,-9526.3,-7508.7,-6189.5,-1952.3,-5048.2,-7015.4
-5103.1,-3820.2,-9508.6,-7492.1,-6171.3,-1930,-5028.6,-7013.7
-5075.3,-3796.5,-9483.9,-7470.7,-6144.2,-1902.7,-5003.2,-7001.8
-5059.9,-3781.3,-9467.1,-7452.7,-6126,-1887,-4986.7,-6988.7
-5068.4,-3789,-9470.7,-7451,-6128.9,-1893.9,-4990.3,-6982.2
-5084.8,-3804.6,-9486.8,-7461.4,-6142.4,-1909.7,-5004.4,-6983.3
-5114.4,-3828.8,-9517.7,-7481.9,-6168.5,-1936.2,-5029.4,-6993.4
-5133.6,-3850.2,-9538.1,-7502.9,-6188.4,-1955,-5048.9,-7006.5
-5131.1,-3852.1,-9533.3,-7513.4,-6187.7,-1953.1,-5048.5,-7013.5
-5119.6,-3838.1,-9518.5,-7509.5,-6174.1,-1940.3,-5037.2,-7010
-5092.8,-3813.3,-9494.1,-7489.6,-6149.4,-1913.3,-5012.8,-7000.5
-5066.6,-3790.6,-9471.6,-7465.8,-6124.1,-1887.8,-4987.9,-6987.7
-5065.9,-3788.3,-9471.6,-7452.8,-6116.4,-1882.3,-4980.5,-6977.2
-5078.8,-3802.6,-9485,-7457.7,-6123.4,-1892.7,-4987.8,-6970.1
-5100,-3825.5,-9500,-7473.3,-6141.9,-1912.6,-5005.9,-6973
-5129.4,-3852.1,-9520.6,-7496.1,-6168.4,-1938.3,-5031,-6985.9
-5146.8,-3867.4,-9536.9,-7519.6,-6187,-1954,-5048.1,-7002.6
-5130.2,-3852.9,-9533.3,-7527.2,-6177.1,-1939.9,-5037.6,-7016.4
-5112,-3836,-9516.4,-7508.1,-6158.9,-1921.3,-5020.5,-7012.7
-5084.1,-3810.5,-9491.4,-7483,-6132.7,-1895.2,-4994.8,-6999.9
-5064.1,-3794.1,-9473.8,-7463.5,-6115.5,-1879.1,-4978.4,-6990.4
-5076.7,-3802.9,-9477.6,-7461.3,-6124.2,-1887.8,-4985.7,-7003.8
-5100.6,-3825.2,-9496.9,-7475.1,-6142.1,-1907.9,-5003.9,-7006.4
-5128.4,-3850.8,-9522.8,-7498.7,-6166.6,-1932.8,-5027.8,-7008.9
-5147.2,-3866.1,-9542.6,-7515.2,-6184.5,-1948.6,-5043.9,-7014.4
-5144.9,-3860.7,-9539.8,-7511.6,-6181.9,-1943.7,-5039.3,-7012.4
-5139.4,-3857.8,-9535.2,-7508.2,-6172.3,-1937.4,-5032.8,-6994.3
-5109.2,-3830,-9510.8,-7496.5,-6148.3,-1911.4,-5009,-6985
-5079.4,-3801.9,-9482.1,-7471.3,-6121.2,-1883.9,-4983.7,-6975.8
-5073.2,-3798.2,-9473.9,-7455.6,-6115,-1879.4,-4978.6,-6967.5
-5085.2,-3809.1,-9483.1,-7459.5,-6125,-1890.3,-4987.6,-6966.8
-5106.9,-3829,-9501.9,-7474.7,-6145.4,-1912.1,-5007.7,-6973.1
-5136,-3858,-9529.1,-7500.8,-6174.7,-1940,-5034.7,-6987.4
-5144.4,-3864.2,-9540.5,-7512.8,-6184.9,-1946.9,-5042.7,-6998.8
-5138,-3858,-9539.6,-7511.8,-6178.8,-1940.5,-5037.6,-7002.4
-5118.1,-3841.1,-9527.3,-7501.4,-6162.1,-1923.1,-5021.2,-6999.5
-5088,-3813.1,-9501.6,-7478.6,-6132.5,-1893.2,-4993,-6987.3
-5071.3,-3798.4,-9481,-7458.3,-6115.2,-1877.8,-4976.7,-6972.8
-5076.1,-3804.9,-9480.3,-7456.6,-6120.5,-1883.8,-4981.4,-6966.5
-5090.2,-3819.8,-9490.2,-7466,-6133.6,-1897.5,-4993.5,-6968
-5121.2,-3846.9,-9513.8,-7488.4,-6157.9,-1924.2,-5017.8,-6976.5
-5140.6,-3868.3,-9537.1,-7514.3,-6178.1,-1945,-5038.4,-6986
-5138.4,-3868.2,-9541.6,-7519.3,-6178.6,-1941.8,-5038.3,-6993
-5129.3,-3860.6,-9533.3,-7514.2,-6170.8,-1931.3,-5029.2,-6995
-5107.9,-3837,-9512.3,-7498.8,-6146.4,-1905.4,-5005.5,-6988.4
-5084.5,-3811.9,-9488.9,-7475.6,-6117.3,-1877.7,-4979.3,-6969.8
-5078.4,-3806.8,-9479.4,-7461.6,-6110.2,-1872,-4972.1,-6957.1
-5082.2,-3812.1,-9483.3,-7461.4,-6121,-1883.6,-4981.6,-6956.6
-5102.3,-3831.6,-9503.8,-7480.3,-6145,-1909.1,-5004.8,-6966.9
-5122.6,-3851.8,-9530.9,-7512.4,-6168.4,-1931.5,-5027.8,-6988.8
-5137.2,-3868.8,-9540.6,-7525.7,-6179.8,-1943.5,-5039.7,-7000.8
-5135.3,-3867.4,-9535.6,-7525.7,-6175.5,-1939.2,-5035.7,-7004.6
-5117.7,-3847.3,-9519.1,-7513.7,-6161.3,-1923.2,-5021.5,-7007
-5085.9,-3817.9,-9488.2,-7488.3,-6143.9,-1902.3,-5003.2,-7019.5
-5073.1,-3805.3,-9470.9,-7468,-6128.8,-1888.4,-4989.2,-7009.2
-5079.6,-3808.8,-9473.4,-7463.6,-6129.4,-1892.3,-4990.2,-6995.5
-5093.8,-3823.9,-9485,-7469.9,-6142.3,-1906.6,-5001.6,-6990.9
-5123.7,-3854.9,-9502.6,-7483.7,-6166.6,-1932.1,-5023.4,-6990.1
-5145.5,-3874.7,-9527.8,-7508.6,-6183.2,-1950.3,-5041.1,-6983.9
-5143.8,-3871.1,-9535.3,-7521.1,-6186.1,-1951.3,-5044.4,-6989
-5128.4,-3855.7,-9527.2,-7515.7,-6175.7,-1939,-5034.9,-6995.3
-5104.1,-3833.8,-9509,-7498.5,-6152.6,-1914.8,-5013.1,-6992
-5077.7,-3810.1,-9484.7,-7474.9,-6126.4,-1888.2,-4987.8,-6981
-5070,-3801.8,-9472.3,-7459.4,-6115.6,-1877.6,-4977.1,-6970.5
-5084.2,-3815.7,-9480,-7464.3,-6127.2,-1890.1,-4987.3,-6968.6
-5100.5,-3832.4,-9494.3,-7477.4,-6144.4,-1907.5,-5002.5,-6973.5
-5128.7,-3860.6,-9521.6,-7501.1,-6170,-1934.8,-5029,-6984.5
-5141.7,-3874.7,-9538.6,-7520.1,-6184.2,-1947.1,-5043,-6996.1
-5134.4,-3867.2,-9535.8,-7520.1,-6178.1,-1938.9,-5037.4,-7000.6
-5118.6,-3852,-9522.3,-7509.4,-6164,-1924.7,-5024.4,-6998
-5091.2,-3824,-9498,-7487.6,-6137.9,-1898.2,-4998.8,-6988.6
-5069.8,-3804.2,-9476.5,-7465.2,-6116.9,-1877.9,-4978.7,-6975.7
-5075.4,-3809.1,-9474.7,-7463.3,-6118.9,-1881.9,-4981.1,-6966.8
-5087.9,-3823.8,-9484.2,-7475.2,-6131.7,-1897.3,-4994.7,-6962.3
-5116.1,-3844.6,-9505.3,-7490.6,-6152.7,-1917.9,-5014.1,-6967.7
-5142.1,-3865.8,-9530,-7511.3,-6176.3,-1939.1,-5036.4,-6980.5
-5141.3,-3869.3,-9539,-7520.8,-6182.9,-1943.5,-5042.8,-6990.3
-5128.7,-3857.6,-9535.8,-7515.4,-6171.3,-1932.2,-5032.9,-6989
-5105.8,-3834.4,-9513.3,-7498.1,-6151.4,-1910.4,-5012.2,-6982.8
-5079.6,-3806.6,-9481.4,-7473.8,-6125,-1883.9,-4986.3,-6972.3
-5076.4,-3802.6,-9471.7,-7464.2,-6118.6,-1879.6,-4980.5,-6965.7
-5079.3,-3808.8,-9479.5,-7474.2,-6125.8,-1886.5,-4987.4,-6973.1
-5096.8,-3826.1,-9491.1,-7476.6,-6140.5,-1903.7,-5002.6,-6975.9
-5127.3,-3858.8,-9518.8,-7497.5,-6169.4,-1934.4,-5030,-6985
-5141.6,-3875,-9537.2,-7517.4,-6186.5,-1949.2,-5045,-7001.4
-5138.7,-3872.2,-9533.9,-7519.4,-6189.5,-1947.9,-5046.2,-7028
-5128.7,-3861.1,-9526.1,-7514,-6181.9,-1937.8,-5038.4,-7029.5
-5097.4,-3828.5,-9499.2,-7490.9,-6150.7,-1905.9,-5008.5,-7010.9
-5074.3,-3806.4,-9476.7,-7468.6,-6129,-1883.9,-4986.3,-6991.4
-5076.4,-3806.5,-9466.5,-7451.7,-6126.5,-1882.9,-4982,-6972.6
-5097,-3827,-9485.9,-7466.1,-6139.9,-1900.1,-4996.9,-6955.9
-5116.3,-3846.9,-9507.9,-7489.5,-6159.6,-1921,-5016.7,-6960.6
-5138.4,-3867.3,-9531.9,-7513.6,-6180.8,-1941.9,-5037,-6978.5
-5139.6,-3869.5,-9537.5,-7521.4,-6182,-1942.8,-5038.7,-6989.6
-5131.5,-3863,-9534.4,-7519.7,-6177,-1936.6,-5033.9,-6995.6
-5106.5,-3840.5,-9514.6,-7503.4,-6158.3,-1914.5,-5015.2,-6992.7
-5082.1,-3815.4,-9491.6,-7478.6,-6137.1,-1890.6,-4993.1,-6983.7
-5065.3,-3798.7,-9476.3,-7457.5,-6120.9,-1874.5,-4976,-6972.4
-5080,-3809.5,-9484.9,-7458.5,-6126.7,-1884.7,-4983.2,-6967.3
-5098.8,-3826.8,-9496.3,-7471.2,-6141.5,-1900.9,-4998.4,-6968.7
-5125.1,-3857.7,-9517.2,-7495.9,-6168.5,-1929.4,-5025.7,-6979.7
-5145.5,-3875.4,-9534.8,-7517.5,-6183.1,-1944.1,-5040.1,-6991.1
-5139.7,-3868.4,-9535.4,-7522.4,-6181.3,-1940.8,-5037,-6997.1
-5123.4,-3853.9,-9524.2,-7515.4,-6170.6,-1929,-5026.1,-6997.6
-5097.3,-3830.1,-9501.3,-7497.3,-6145.9,-1903.7,-5002.3,-6989.4
-5072.2,-3806.6,-9476.9,-7474.9,-6119.1,-1878.4,-4977.5,-6972.2
-5073.4,-3807.2,-9474.4,-7462.3,-6118.1,-1879,-4976.5,-6963.1
-5084.9,-3820.3,-9485.3,-7467.2,-6128.2,-1890.3,-4986.1,-6964
-5108.7,-3844.2,-9505.9,-7485.1,-6151.4,-1916.4,-5010.1,-6972.1
-5130.9,-3865.2,-9527.9,-7509.9,-6173.2,-1939.3,-5032.7,-6982.4
-5133.7,-3865.6,-9529.2,-7515.7,-6179.3,-1944.1,-5037.7,-6990.2
-5127,-3860.5,-9524,-7513.4,-6177.6,-1940.5,-5035.5,-6997.1
-5111.6,-3847.2,-9515.3,-7507.9,-6165.9,-1927.9,-5023.6,-7000.6
-5073.1,-3807.6,-9491,-7491.3,-6130.8,-1889.9,-4989.1,-6999.2
-5060.4,-3793.3,-9466.1,-7462.6,-6111.6,-1873.6,-4971.8,-6983.4
-5077,-3810,-9472.6,-7464.1,-6123.2,-1887.2,-4982.7,-6977.8
-5092,-3827.5,-9487.8,-7472.9,-6141.1,-1905.4,-4999.2,-6984.3
-5119.2,-3855.4,-9508.8,-7491.7,-6173.7,-1936.8,-5029.4,-7016.3
-5141.4,-3876.8,-9525.2,-7510.3,-6191.4,-1955.7,-5047.9,-7029.3
-5144.4,-3877.7,-9529.8,-7520.4,-6191.3,-1955.8,-5048.8,-7030.6
-5131.5,-3863.3,-9518.7,-7512.6,-6177.6,-1941.3,-5034.8,-7024.8
-5109.3,-3836.6,-9491.1,-7483.5,-6151.6,-1914.3,-5007.9,-7006.6
-5085.7,-3814.9,-9473.2,-7461.5,-6127.7,-1892.5,-4986.5,-6975.2
-5078.8,-3809,-9468.8,-7453.7,-6123.5,-1888,-4981.6,-6962.1
-5086.7,-3818,-9476.7,-7459.4,-6132.5,-1897.1,-4990.3,-6965
-5106.5,-3840.2,-9495.3,-7476.2,-6152.2,-1918.2,-5010.2,-6972.6
-5132.7,-3865.9,-9520.5,-7502,-6177.9,-1943.7,-5035.1,-6986.3
-5140.5,-3873,-9530.4,-7518,-6188.4,-1952,-5045.2,-6999.6
-5132.5,-3864,-9523.9,-7517,-6182.6,-1943.9,-5038.7,-7004.9
-5111.1,-3843.7,-9507.2,-7503.3,-6165.2,-1924.2,-5020.6,-7002.3
-5082.7,-3815.9,-9483.6,-7479.6,-6136.8,-1896.5,-4994.8,-6990.5
-5068,-3800,-9466.9,-7460.5,-6120.9,-1881.4,-4980.3,-6977.4
-5073.5,-3808.7,-9467.7,-7460.1,-6124.7,-1888.2,-4984.7,-6972
-5088.7,-3825.7,-9478.9,-7470.4,-6136.8,-1902.3,-4997,-6972.3
-5120.2,-3855.8,-9505.1,-7494.2,-6160.7,-1926.8,-5019.8,-6980.7
-5143.1,-3879.7,-9527.7,-7519.9,-6179.5,-1944.8,-5037.5,-6992.6
-5145.1,-3877.4,-9531.6,-7529.5,-6178.1,-1942,-5036.2,-6999.2
-5131.6,-3860.9,-9522.1,-7523,-6166.8,-1930.4,-5025.4,-6996
-5100,-3828.1,-9497.2,-7500.9,-6146.6,-1908.6,-5004.7,-6988.1
-5074.1,-3799.2,-9473.5,-7475.7,-6125.4,-1887.3,-4983.5,-6977.5
-5067.4,-3793,-9465.5,-7462.3,-6120,-1884.5,-4979.2,-6969
-5077.7,-3803.6,-9475.4,-7467.7,-6128,-1895.6,-4989.1,-6963.8
-5098.5,-3824.9,-9493.3,-7482.9,-6147.3,-1914.9,-5007.8,-6968.6
-5124.1,-3852.2,-9521.7,-7504.3,-6171.2,-1937.5,-5029.9,-6982.5
-5138.1,-3866.9,-9545.5,-7522.8,-6187.4,-1952.8,-5044.7,-6999.1
-5124.5,-3851.9,-9541.5,-7528.4,-6179.1,-1941.7,-5036.5,-7014.2
-5109.4,-3834.2,-9518.5,-7508.9,-6166.2,-1928.1,-5024.5,-7012.2
-5083.5,-3805.3,-9486,-7482,-6141,-1901,-4999.9,-6999.4
-5066.3,-3791.3,-9462.7,-7463.2,-6124.9,-1885.8,-4984.1,-6990
-5070.9,-3799.2,-9459.8,-7461.4,-6133.7,-1894.2,-4991.2,-7004.2
-5091.7,-3819.3,-9476.7,-7473.6,-6149,-1911.6,-5007.2,-7006.7
-5119.8,-3847.9,-9503.7,-7497.8,-6174.8,-1939.3,-5033.5,-7008.9
-5139.4,-3866.3,-9524.4,-7518.9,-6196.4,-1960,-5054.1,-7017.1
-5143.5,-3864.6,-9525.2,-7517.8,-6198.4,-1959.5,-5053.6,-7016.8
-5131.3,-3851,-9521.5,-7514,-6184.4,-1947.6,-5042.2,-6999.8
-5102,-3822.7,-9503.8,-7501.1,-6162.7,-1924.3,-5021.2,-6991
-5071,-3791.6,-9478,-7477.9,-6136.9,-1895.3,-4995.6,-6984
-5062.1,-3784,-9465.1,-7460.4,-6125.5,-1885.1,-4984.7,-6974.1
-5075.8,-3797.4,-9474.4,-7464.2,-6134.8,-1896.5,-4993.9,-6972.4
-5091.7,-3815.2,-9487.6,-7475,-6149.1,-1912.2,-5007.8,-6975.9
-5131.1,-3854,-9520.9,-7505,-6186.7,-1949.1,-5042.8,-6991.4
-5132.9,-3854.3,-9527.1,-7515.1,-6192.4,-1950.7,-5046.6,-7002.8
-5133.3,-3852.4,-9528.2,-7516.8,-6189.7,-1948.8,-5045.4,-7007.8
-5112.7,-3832,-9513.9,-7507.4,-6171.7,-1929.2,-5027.5,-7006.2
-5084.3,-3802.9,-9489.9,-7484.5,-6144.4,-1900.9,-5001.2,-6995.7
-5065.9,-3785.3,-9469.7,-7463.1,-6123.7,-1882,-4982.3,-6981.1
-5071.8,-3792.3,-9470.7,-7459.8,-6127.4,-1887.6,-4985.4,-6974.1
-5086.1,-3807.6,-9482.9,-7467,-6140.7,-1903,-4998.3,-6974.8
-5115.3,-3836.6,-9508.3,-7488.4,-6166.5,-1930.7,-5024,-6982.8
-5131.8,-3857.7,-9530.4,-7512.6,-6185.8,-1949.7,-5042.9,-6991.8
-5132,-3856.3,-9535.7,-7520.8,-6189,-1949.2,-5044.5,-6998.7
-5124.6,-3845.7,-9527.3,-7515.4,-6180.9,-1939.9,-5036.4,-7000.8
-5105.7,-3827.6,-9506.8,-7501,-6163.2,-1921.8,-5019.5,-6996.4
-5070.2,-3793.3,-9475.2,-7475.9,-6130.4,-1887.9,-4988,-6978.6
-5062.8,-3784.8,-9461.4,-7457.8,-6121,-1880.9,-4978.4,-6964
-5072.3,-3793.4,-9467.1,-7456.7,-6128.9,-1888.8,-4984.3,-6961.7
-5103,-3823.3,-9493.5,-7476.6,-6155.2,-1917.2,-5009.5,-6970.5
-5124.5,-3846,-9524.2,-7513,-6179.4,-1940.4,-5032.7,-6994.2
-5133.6,-3855.9,-9532.7,-7520.6,-6189.6,-1951.3,-5043.7,-7004.5
-5130.5,-3853.6,-9530,-7520.3,-6190,-1950.1,-5044.1,-7008.5
-5114.4,-3835.4,-9517.8,-7510.2,-6176.2,-1933.2,-5030.1,-7011
-5085,-3806.8,-9491.3,-7486.2,-6153.1,-1907.2,-5006.5,-7022
-5071.8,-3792.5,-9473.5,-7464.3,-6134.6,-1891.2,-4989.6,-7010.6
-5078,-3798.3,-9472.4,-7460.5,-6135.7,-1895.7,-4991.3,-6997.2
-5091.4,-3814.3,-9479.2,-7469.2,-6148.2,-1909.7,-5002.1,-6992.7
-5118.2,-3842.8,-9494.8,-7482,-6171.6,-1934.5,-5023.5,-6991.9
-5143.7,-3869.9,-9524.2,-7510.3,-6190.9,-1957,-5044.8,-6987
-5138.4,-3867.9,-9531.3,-7525.3,-6191.1,-1955.4,-5045.3,-6992.8
-5126.6,-3852.7,-9523.7,-7520.6,-6181.2,-1943.3,-5035.4,-6999.2
-5102.1,-3826.3,-9503.3,-7502.9,-6160.2,-1920.1,-5015,-6996
-5078.3,-3799.2,-9479.4,-7477.5,-6134.5,-1893.6,-4990,-6984.6
-5069.3,-3789.2,-9466.8,-7461.5,-6122.5,-1882.6,-4978.3,-6973
-5080.9,-3802.5,-9474.9,-7467.1,-6134.3,-1894.4,-4988,-6971.4
-5096.9,-3818,-9491.3,-7480,-6150.2,-1909.9,-5001.8,-6975.2
-5124.7,-3846.7,-9522.9,-7503.6,-6175.7,-1937.9,-5027.9,-6985.7
-5137.8,-3860.3,-9538.5,-7521.8,-6189.3,-1951.6,-5041.7,-6997.5
-5130.6,-3856.1,-9531.8,-7523.1,-6185.3,-1946.6,-5038.4,-7002.7
-5115.2,-3842.2,-9517,-7512.5,-6171.6,-1931.7,-5025.8,-7000.5
-5088.9,-3815,-9492.5,-7491.2,-6146.7,-1905.3,-5001,-6991.1
-5068.6,-3795.1,-9471.9,-7468.1,-6125.5,-1884,-4980.6,-6977.9
-5072,-3798.9,-9471.3,-7462.7,-6126.3,-1887.5,-4982.1,-6969.5
-5085,-3810.6,-9481.2,-7472.7,-6137.3,-1900.6,-4993.3,-6965.9
-5108.6,-3833.7,-9501,-7489.9,-6160.9,-1923.8,-5015.7,-6972.5
-5132,-3856.6,-9523.9,-7512.8,-6185.2,-1947,-5040.2,-6987.4
-5131.5,-3860.9,-9529.8,-7525.1,-6191.3,-1950.8,-5046.6,-6999.2
-5117.2,-3849.8,-9522.2,-7524.7,-6180.9,-1939.6,-5037.6,-6998.1
-5102.6,-3826.8,-9504,-7510.4,-6161.8,-1918.1,-5017.8,-6992.1
-5074.7,-3795.2,-9476.3,-7483.4,-6133.8,-1888.8,-4990.5,-6981.3
-5063.7,-3787.2,-9465.3,-7469,-6125,-1881.9,-4982.4,-6974.8
-5067.6,-3793,-9471.9,-7475.4,-6129.3,-1888.3,-4987.1,-6981.2
-5088.5,-3811.8,-9483.7,-7478.9,-6144.4,-1906.9,-5002.9,-6983.4
-5123.4,-3844.7,-9510,-7498.9,-6174.7,-1938.1,-5031.8,-6992
-5135.7,-3860.4,-9527.1,-7518.9,-6194.3,-1954.4,-5050.1,-7009.1
-5128.3,-3854.4,-9523.9,-7520.6,-6196.1,-1952.3,-5050.2,-7036.3
-5119.6,-3843.9,-9517.5,-7513.5,-6183.9,-1940.5,-5038.9,-7037.4
-5095.3,-3818.2,-9497.9,-7495.7,-6157.2,-1914.6,-5013.8,-7022
-5073.5,-3794.5,-9476.2,-7471.2,-6134.1,-1891.2,-4990.2,-7003.4
-5074.8,-3796.1,-9469.5,-7453.2,-6131.7,-1892.1,-4987,-6985
-5089,-3811.9,-9488.7,-7464.9,-6138.3,-1903.8,-4996.4,-6965.8
-5108.5,-3831.5,-9510,-7487,-6156.9,-1923.6,-5015.2,-6968.3
-5132.4,-3855.9,-9529.1,-7511.1,-6181.7,-1947.7,-5039.9,-6984
-5138.2,-3861.1,-9535.1,-7524.1,-6189.3,-1953.2,-5047.6,-6996.4
-5127.5,-3849.3,-9527,-7519,-6182.4,-1943.1,-5039.8,-7000.8
-5104.9,-3830.9,-9510.7,-7505.9,-6162.7,-1921.9,-5020,-6997.9
-5078.5,-3804,-9489,-7483.1,-6137.6,-1895.7,-4994.4,-6987.8
-5065,-3789.5,-9473.9,-7463.9,-6122,-1880.3,-4977.8,-6976.5
-5075.5,-3800.7,-9477.5,-7463.7,-6128.4,-1890.7,-4986,-6971.4
-5094.4,-3815,-9489.4,-7472.6,-6144,-1907.5,-5001.2,-6973.4
-5124.9,-3841.5,-9514.3,-7493.3,-6170.8,-1935.6,-5027.2,-6983.9
-5141.2,-3860.1,-9532.1,-7512.7,-6188.3,-1953,-5044.8,-6996.4
-5136.9,-3857.3,-9531.2,-7518.9,-6185.9,-1948.3,-5041.3,-7004.1
-5122.7,-3845.5,-9519.8,-7513.2,-6173.8,-1935.5,-5030,-7005.2
-5095.5,-3819.7,-9497.4,-7495.5,-6148.8,-1910.7,-5005.8,-6998.3
-5072.9,-3796.8,-9474.8,-7474,-6123.3,-1886.9,-4981.3,-6982.6
-5071.7,-3797,-9468.1,-7461.2,-6121.1,-1886.5,-4978.5,-6972.1
-5083.9,-3806.9,-9476.4,-7465,-6132.5,-1898,-4988.7,-6971.4
-5110.1,-3831.2,-9497.2,-7482.4,-6155.1,-1921.9,-5011.2,-6977.9
-5134.3,-3855.6,-9524.4,-7508.1,-6177,-1944.6,-5033.6,-6986.7
-5138.1,-3862.5,-9533.2,-7522.3,-6186.9,-1953.4,-5043.1,-6996.4
-5124.5,-3850.6,-9522.2,-7518,-6178.9,-1943.1,-5034.4,-7001.4
-5107.9,-3832.3,-9509.5,-7508.2,-6163.7,-1925.9,-5018.3,-7003.1
-5072.5,-3797.2,-9486.4,-7489.1,-6132.6,-1892.7,-4987.4,-7000.8
