EEG1,EEG2,EEG3,EEG4,EEG5,EEG6,EEG7,EEG8
0,0,0,0,0,0,0,0
2964.4,1742.9,196,-3657.3,-2674.1,-842.4,8233.8,-3677
2962.2,1739.8,193.9,-3665.4,-2675.8,-843.1,8231.6,-3680
2950.6,1738.9,194.2,-3661.9,-2674.6,-842.7,8231.3,-3682.1
2950.3,1739.2,195,-3655.4,-2673.8,-840.8,8232.5,-3680.5
2960.6,1742.5,194.7,-3648.1,-2677.5,-843.1,8228.1,-3681.4
2960.9,1743.5,191.1,-3645.5,-2676.2,-850.9,8226.2,-3684.5
2956.8,1741.6,191.4,-3646.3,-2672.1,-850.6,8232.8,-3680.8
2958.1,1738.7,193.6,-3646.6,-2670.7,-848,8235.1,-3679.8
2952.4,1741.3,193.8,-3647.1,-2672.1,-846.9,8232.5,-3680.9
2948,1742,196.1,-3640.7,-2672.3,-844.3,8233,-3678.1
2948.6,1738.9,194.5,-3650.7,-2672.1,-845.2,8232.3,-3679.1
2953.8,1741,192.3,-3655.2,-2673.7,-846.7,8230.6,-3680.5
2957.5,1743.8,193.9,-3647.8,-2674.7,-849,8230.7,-3680.3
2962.1,1742.2,193.9,-3646.8,-2676.3,-859.4,8228,-3685.5
2961.2,1741.9,193.2,-3642.5,-2674.3,-859.3,8231.7,-3684.7
2960.7,1746.9,197.9,-3637.5,-2676.1,-856.5,8230.8,-3682.9
2953.2,1744.6,195.5,-3640.6,-2677.5,-855.8,8228.4,-3687.4
2950.9,1738.5,192.1,-3648.4,-2677,-857.8,8227.6,-3692.7
2948.3,1731.8,191.4,-3653,-2682.7,-855.9,8224.6,-3689.9
2945,1732,192.6,-3657.5,-2685.1,-855,8221.4,-3689.3
2952.2,1732.6,194,-3652.4,-2683.2,-856,8221.5,-3690.4
2954.6,1737,193.5,-3646.7,-2679.5,-857.8,8225.5,-3687.7
2943.6,1742.2,192.5,-3644.2,-2675.8,-854.6,8229.6,-3684.7
2950.9,1744.2,197.4,-3641.1,-2674.7,-852,8231.7,-3681.4
2957.1,1736.2,197.1,-3646.4,-2671.5,-846.8,8233.2,-3679.6
2956.8,1735.1,194.8,-3650.5,-2672,-839.6,8231.9,-3677.2
2954.8,1737.3,195.1,-3646.9,-2668.5,-833.9,8235.6,-3674.3
2956.8,1735.2,193.5,-3647.9,-2665.5,-836.1,8236.3,-3675
2961,1737.3,191.7,-3656.9,-2663.2,-840.9,8237.8,-3674.7
2961.7,1743.9,193.4,-3656.2,-2662,-841.8,8240,-3672
2959.6,1747.1,199.6,-3645.1,-2663.4,-842,8238.7,-3672
2961.1,1747.4,202.4,-3641.8,-2659.6,-842,8242.5,-3670.9
2961.9,1747.7,204.6,-3651.9,-2656.6,-838.3,8247.3,-3666
2957.4,1743.9,204.6,-3656,-2657.2,-826,8249,-3660.1
2960.6,1740.2,205.6,-3641.9,-2658.5,-826.5,8244.8,-3663.7
2959.6,1738.4,199.3,-3636.6,-2659.7,-831.1,8242.3,-3668.6
2958.3,1736.6,195.9,-3641.5,-2661.6,-835.6,8239.4,-3672.5
2954.1,1741.2,194.1,-3646,-2664.5,-846.8,8234.5,-3679.3
2955.4,1743.6,196.2,-3648.1,-2663.9,-849.1,8236.9,-3679.3
2959.6,1747.5,195,-3643.4,-2664.7,-847.7,8238.1,-3677.3
2962.9,1751.1,198.9,-3632.8,-2665.7,-846,8238.6,-3674
2965.3,1753.3,206.4,-3626.8,-2666.8,-843.4,8238.4,-3671.5
2962.6,1751.6,207.8,-3633.9,-2666.2,-842.5,8237.6,-3671
2957.9,1747.3,206.5,-3642,-2664.3,-843.8,8238.4,-3671.3
2957.1,1744.6,205.4,-3644.9,-2669,-847.7,8233.6,-3675.2
2953.8,1742.8,202.6,-3644.3,-2676.3,-856.1,8226.7,-3681.9
2958.1,1741,200.5,-3644.5,-2675.3,-855.8,8228.8,-3680.7
2960.1,1741.5,200.5,-3648.2,-2671,-852.2,8232.5,-3676.5
2959.1,1745.8,197.4,-3650.8,-2668.3,-851.4,8235.3,-3676
2961,1745.5,194.8,-3648.9,-2670.7,-854.8,8232,-3680.6
2961.1,1745.3,196.2,-3647.3,-2677.6,-852.8,8227.5,-3679.5
2961.9,1742.7,198.2,-3662,-2675.2,-852.4,8228.5,-3678.9
2951.4,1741,197,-3664.9,-2672.7,-852.3,8229.9,-3677.4
2943.7,1741.1,195.5,-3660.8,-2672.3,-853.1,8229,-3678.2
2946.5,1736.6,193.2,-3657.5,-2673.2,-851.1,8228.7,-3680
2955.4,1739.9,195.8,-3656.3,-2672.6,-849.8,8229.3,-3679.3
2957.2,1744.5,195.8,-3655.4,-2669.9,-849.2,8231.8,-3678.3
2958.4,1749,196.4,-3648.7,-2667.5,-844.9,8234.4,-3672.5
2953.1,1754,198.6,-3637.5,-2665.2,-836,8239.2,-3664.1
2952.4,1756,196.7,-3636.8,-2664.9,-836.2,8238.5,-3663.9
2957.7,1749.6,197.5,-3637,-2665.2,-841.1,8237.7,-3667.3
2956.8,1740.8,194.8,-3634.4,-2665.3,-844,8236.9,-3670.8
2955.5,1740,190.3,-3640.2,-2665,-846.2,8236.6,-3671.7
2959.8,1747.2,193.1,-3643.1,-2665.4,-849.3,8237.1,-3669.4
2956.9,1748.5,197.4,-3644.4,-2666.8,-849.9,8237.4,-3668.4
2956.5,1747.9,203.7,-3641.5,-2659.2,-838.5,8245.1,-3660.7
2963.9,1750.1,209.3,-3634,-2657,-837.6,8245.7,-3661
2964.5,1748.1,208.7,-3643,-2657.6,-843.1,8245.3,-3662.9
2964.9,1743.7,202.3,-3648.6,-2656.1,-847.3,8244.4,-3665.1
2958,1731.7,194.4,-3646.7,-2662.7,-856.3,8237,-3673
2946.9,1718.9,191.1,-3651.1,-2669,-858.4,8234,-3674.9
2943,1722.5,190.1,-3655.6,-2670,-855.6,8234.7,-3674.2
2950.5,1736.2,194.3,-3650.1,-2670.8,-855.7,8234,-3676.1
2952.8,1745.1,199.8,-3644.6,-2673.8,-855.7,8232.5,-3675.8
2955,1757.7,203.4,-3646.1,-2672.5,-855.6,8234.1,-3672.9
2957.6,1765.7,204.4,-3642.6,-2672.5,-855.9,8234.1,-3673.6
2955.4,1767.3,201.9,-3642,-2677.4,-860,8228.1,-3677.5
2945,1763.3,198,-3641.8,-2679.9,-868.5,8224.4,-3683.2
2937.9,1754.5,191.5,-3642.8,-2684.3,-869.7,8221.3,-3686.6
2939.3,1750.2,187.3,-3646.2,-2685.5,-864.7,8219.3,-3685.9
2937.2,1753.7,185.3,-3647.1,-2683.4,-862,8219.4,-3686.3
2933.4,1754.5,182.5,-3653.6,-2682.3,-864.8,8220.1,-3688
2933.9,1759.4,183.4,-3649.2,-2680.8,-861.3,8224.3,-3681.5
2937,1767.4,185.8,-3642.6,-2681.4,-861,8224.1,-3680.5
2936.4,1769.8,188,-3636.6,-2682,-862.6,8222.8,-3680.7
2933.5,1770.2,187.3,-3635.2,-2681.2,-864.8,8223.6,-3679.6
2928.3,1769.6,180.8,-3640,-2681,-863.3,8223.4,-3681.4
2916.8,1772.1,176.3,-3642.3,-2682.3,-860.8,8221.6,-3682.7
2917.6,1774,173.8,-3640.4,-2682.3,-857.7,8220.2,-3682.4
2922.4,1777.9,176.1,-3636.8,-2679.8,-853.7,8221.8,-3679
2924.6,1786.1,182.4,-3627.7,-2674.9,-845.5,8228.8,-3671.9
2930.9,1791.8,187.6,-3624.5,-2668.3,-846.1,8234.1,-3669.3
2935.4,1791.1,190.2,-3624.9,-2665.1,-850.2,8237.8,-3669.7
2932.5,1793.1,190,-3624.3,-2670.4,-855.4,8233.2,-3673.1
2927.6,1790.7,185.9,-3632.3,-2668.6,-856.1,8234.1,-3672.5
2919.7,1786.7,181.1,-3629.9,-2672.2,-858.6,8230.8,-3674.8
2918.7,1781.2,180.9,-3632.3,-2675.2,-858.2,8228.7,-3676.6
2922.5,1777.6,184.1,-3640.5,-2672.1,-849,8232.3,-3670.4
2924.1,1781.9,188.5,-3635.4,-2668.9,-848.5,8233.7,-3669.2
2928.8,1789.5,191.8,-3627.3,-2667.2,-853.3,8234.2,-3669.8
2932.5,1794.4,192.9,-3626.6,-2667.1,-857.7,8233.6,-3671.5
2931,1792.9,188.8,-3626.1,-2672,-866.9,8228.2,-3678.7
2926.6,1784.5,183.5,-3633.3,-2679.2,-871.4,8223.8,-3683.9
2923.4,1779,183.7,-3633.1,-2681,-869.7,8222.6,-3683.9
2911.3,1775.3,181.6,-3630.9,-2682.6,-866.8,8222,-3683.6
2909.6,1777,180.4,-3634.4,-2678.3,-862.6,8225.8,-3679.8
2921.6,1782.4,182,-3638.4,-2677.5,-862.1,8227.8,-3676.9
2927.5,1781.7,181.6,-3640.7,-2674.7,-860,8230.2,-3673.9
2933.9,1779.3,181.7,-3639.7,-2673.8,-858.9,8231.9,-3674.6
2931.2,1784.1,182.9,-3633.7,-2674.9,-868.2,8229.7,-3680.5
2922.9,1778.6,177.9,-3632.8,-2680.3,-870.2,8227,-3681.7
2925.3,1778.8,177.1,-3633.5,-2683.1,-868.3,8223.1,-3681.9
2920,1773.1,173.1,-3644,-2686.7,-869.5,8219.4,-3686.7
2917.8,1769.6,170.8,-3647.3,-2690.7,-875.5,8214.2,-3694.5
2914.3,1768.5,172.3,-3639.8,-2691.3,-870.4,8214.8,-3692.7
2911.2,1767.5,173.8,-3636.7,-2685.6,-864.3,8220.2,-3688
2917.1,1771.9,176.8,-3637.1,-2683.5,-863.6,8222.5,-3684.8
2924.2,1777.5,184.3,-3635.9,-2680.1,-867,8227,-3682.3
2922.4,1777,184,-3636.2,-2680.1,-866.3,8227.5,-3683.4
2922.1,1774.2,178.5,-3638.2,-2681,-866.6,8225.4,-3685.7
2920.5,1771.7,175.7,-3642.8,-2682.3,-865.2,8224,-3687.7
2915.6,1767.8,175.4,-3647,-2683.9,-860.6,8222,-3687.1
2913.4,1769.3,176.6,-3640.5,-2680.1,-851.5,8226.8,-3680.8
2919.2,1773.9,178.4,-3635.7,-2677.6,-854.2,8227.5,-3679.9
2923.7,1775.8,182,-3634.5,-2673.9,-857,8231.2,-3679.3
2926.9,1780.3,188,-3633.8,-2669.7,-857.2,8237,-3676.9
2928.7,1785.9,192.2,-3640.9,-2668.1,-856.4,8239,-3675.8
2925.1,1786.1,191.4,-3644.2,-2671.5,-858.8,8235.5,-3679.8
2922.5,1780.3,185.9,-3644.3,-2673.3,-857.3,8233.9,-3680.3
2921.3,1775.5,180.9,-3647.7,-2671.8,-848.9,8235.7,-3676
2919.5,1777.4,177.6,-3657.9,-2667.8,-848.7,8237,-3674.6
2923.2,1781.2,177,-3665.6,-2667.2,-852.5,8237.3,-3674.6
2926.5,1781.4,178.3,-3657.1,-2667.6,-856.9,8236.8,-3675.3
2927.2,1775.9,179.1,-3641.8,-2672.7,-868.7,8230.5,-3683.3
2921.8,1774.2,181.9,-3629.9,-2677.2,-872.3,8228.3,-3684.3
2915.8,1774.2,184.4,-3630.5,-2677.1,-869.2,8228.4,-3682.7
2913.7,1766.1,184.7,-3645.1,-2679.2,-865.4,8227.6,-3682.9
2917.8,1765.1,186.7,-3641.7,-2681.4,-862.1,8226.3,-3683.3
2913.7,1765.5,180.6,-3638.4,-2684.8,-863.6,8221.2,-3687.6
2916.4,1769,178,-3634.3,-2687.9,-867,8217.7,-3690
2920.2,1770.9,179.4,-3633.7,-2685.8,-869,8219.2,-3689.5
2917.1,1772,176.5,-3636.9,-2684.1,-876.4,8218.9,-3691.5
2914.8,1772.9,173.5,-3637.5,-2682.6,-877.7,8222.3,-3690
2919.6,1774.2,177.2,-3635.7,-2683.7,-876.9,8222.4,-3689.6
2911.9,1771.2,174.8,-3638.4,-2687.3,-876.6,8219.5,-3694.2
2909,1767.1,168.7,-3645,-2689.7,-882.4,8216.2,-3702.8
2910.1,1763.6,165.4,-3654.9,-2691.8,-879.3,8216.5,-3701
2909,1760.3,166.4,-3666.2,-2692.3,-876.5,8216.1,-3699.3
2907.4,1761.3,169.1,-3672.1,-2688.2,-876.7,8218.7,-3695.9
2912.2,1766.5,173,-3671.6,-2685.6,-879.9,8221.4,-3692.3
2912.9,1768.4,172.8,-3665.2,-2684.6,-879,8223,-3690.3
2909.3,1765.7,170.4,-3648.6,-2681.7,-877.9,8225.4,-3688.2
2905,1760.9,166.9,-3636.4,-2682.8,-877.3,8223.8,-3689.9
2904.6,1756,165.3,-3636.2,-2684.1,-872.7,8221.2,-3689.7
2906.4,1755.1,166.6,-3634.8,-2679.2,-863.3,8225.3,-3685.3
2909.2,1758.3,166.4,-3637.2,-2679.5,-866.2,8221.9,-3687.8
2910.8,1762.8,166.7,-3636.9,-2681.9,-872.7,8220.1,-3690.9
2909.5,1763.8,169.5,-3632.1,-2680.1,-873.8,8223.9,-3688.4
2911,1763.5,169.3,-3630.7,-2678.4,-873.1,8225.5,-3686.8
2917.4,1765.6,173,-3632.9,-2675.8,-874.8,8228.5,-3686.1
2914.2,1769.8,174,-3637.2,-2675.5,-871.8,8231,-3684.3
2906.6,1769.1,172.8,-3642,-2670.5,-861.4,8235.9,-3677.5
2912.3,1768.1,172,-3645,-2672.5,-864.3,8232.1,-3679.1
2916.3,1769.4,169.8,-3648,-2680.5,-872.7,8225.2,-3684.3
2908.8,1767,166.2,-3648.5,-2685.2,-878.5,8219.9,-3689.3
2896.5,1766.7,161.1,-3648.6,-2685.1,-887.7,8217.8,-3694.6
2897.5,1763.5,158.5,-3650.1,-2685.3,-889.4,8219.7,-3694.6
2902.4,1763.9,160.2,-3651.5,-2685.7,-886.2,8219.7,-3692.5
2906.6,1763.7,164,-3653.5,-2685.6,-884.6,8219.9,-3690.3
2909.8,1765.3,165,-3649.6,-2682.2,-881.5,8223.2,-3688.2
2904.6,1763.3,160.5,-3651.5,-2684.7,-881.2,8220.1,-3691.3
2903.7,1759,159,-3652.5,-2688.8,-881.6,8216.8,-3694.6
2903.4,1754.5,153.9,-3656.9,-2690.7,-882.8,8214.1,-3698
2902.8,1753.1,150.3,-3664.6,-2695.3,-891.2,8207.9,-3704.8
2901.4,1756.6,150.2,-3681.1,-2693.3,-891.1,8211.5,-3701.2
2892.7,1752.7,148.2,-3672.1,-2692.1,-887.5,8213.8,-3697.4
2886,1745.5,145.6,-3655.9,-2690.3,-886.6,8214.7,-3697.9
2889.4,1740.5,148.3,-3657.1,-2692.3,-891.8,8212.4,-3704.9
2887.7,1731.9,153,-3660.4,-2693.7,-887,8213.5,-3701
2876.1,1728.5,152,-3665.1,-2693.9,-883.9,8213.4,-3698.4
2870.9,1737.4,145.7,-3668.1,-2697,-884.1,8210.7,-3699.3
2874.3,1741.6,141.2,-3666.2,-2701.4,-886.7,8206.4,-3702.8
2876,1745.6,141.4,-3661.6,-2703.8,-886.1,8204,-3704.5
2885.2,1753.7,147.9,-3652.4,-2706.1,-886.7,8200.9,-3705.7
2891.5,1754.9,150.1,-3651.1,-2701.3,-883.6,8204.1,-3704.2
2896.7,1757.8,151.1,-3652.4,-2696.6,-877,8209.7,-3697.7
2896.2,1759.4,153.3,-3653,-2685.8,-864.7,8221.8,-3687.9
2896,1764,153.7,-3657.4,-2683,-864.4,8222.1,-3688.8
2901,1772.4,158.1,-3664.8,-2689,-870.5,8217,-3692
2898.1,1773.9,159.2,-3665.9,-2693.4,-874.8,8213.6,-3694.2
2885.5,1770.6,157.3,-3660,-2691.4,-876.3,8214.9,-3692.8
2883.9,1772.7,158.8,-3657.1,-2688.2,-878.2,8219.1,-3689.7
2886.2,1768.7,153.1,-3654.9,-2691,-876.7,8217.2,-3692.2
2892.8,1768.8,153.9,-3644.7,-2687.1,-864.9,8220.9,-3685
2896,1774.6,157.4,-3637.5,-2682,-863.3,8222.9,-3682.3
2898.7,1783,161.7,-3636.2,-2681,-867.7,8224.3,-3682.9
2891.8,1780.6,157.6,-3639.6,-2684.9,-870.8,8220.5,-3688
2885.9,1776.5,152.9,-3644.5,-2689.7,-878,8213.8,-3696.8
2879.8,1769.8,148.8,-3649.9,-2693.8,-879.4,8212.7,-3697.8
2882.2,1769.9,146.6,-3650.7,-2693.6,-876.1,8213.1,-3694.9
2889.3,1769.5,146.4,-3652.6,-2690.8,-873.2,8216.2,-3692.7
2894.2,1774.9,153.9,-3650,-2687,-870.1,8220.2,-3688.8
2894.2,1778.6,158.2,-3648.6,-2684.3,-867.9,8223.4,-3686.4
2893.4,1781,159.1,-3650.1,-2680.2,-867.8,8227.1,-3685.3
2887.2,1779.6,154.2,-3654.6,-2681.3,-869.8,8225.2,-3687.5
2886.9,1779.2,149,-3659.8,-2688.8,-879.4,8217.7,-3695.4
2887.8,1769.7,149.1,-3662.4,-2698,-883.6,8210.4,-3701.5
2883.4,1765.5,148.2,-3661.3,-2698.5,-880.1,8208.2,-3702.8
2885,1765.6,145.5,-3663.6,-2696.1,-878.7,8208.6,-3704
2883,1765.2,144.1,-3665.1,-2697.1,-882.1,8206.9,-3709.4
2885.3,1766.2,148,-3656.8,-2694.1,-877.6,8210.4,-3704.1
2887.8,1766,151.6,-3654.5,-2689.4,-874.2,8214.6,-3700
2888.9,1769.5,154.6,-3654.7,-2686.8,-875,8216.2,-3698.2
2885.4,1769.9,152.7,-3655.3,-2689.8,-878.2,8213.5,-3698.7
2880.6,1768.7,150.8,-3657.6,-2691.6,-877.9,8212.1,-3698.5
2877.7,1767.9,145.8,-3662.7,-2693.5,-876.4,8210.1,-3701.1
2880.5,1766.3,145,-3665.2,-2692.8,-875.3,8209.7,-3701.8
2884.5,1768.8,147.8,-3658.6,-2693.4,-871.7,8210.1,-3698.2
2885.5,1776.4,151.6,-3647.7,-2688,-862.4,8216.7,-3690.2
2894.3,1780.8,156.6,-3646.1,-2682.8,-861.8,8220.2,-3689.4
2898,1780.6,159.8,-3649.3,-2677.4,-864.2,8225.3,-3688
2897.8,1774.9,158.6,-3650.4,-2673.8,-864.3,8229.2,-3687.1
2905.9,1777.1,157.6,-3654.2,-2679.4,-865.4,8224,-3687.4
2899.5,1775.5,155.6,-3655.5,-2684.2,-866.9,8219.4,-3689.9
2886,1774,151.8,-3651.1,-2683.7,-864.6,8219.3,-3691.5
2885.4,1774.6,155.3,-3650.8,-2682.6,-853.9,8221.7,-3686.7
2892.3,1781.8,163.7,-3648.3,-2679.8,-852.6,8223.6,-3682.8
2896.7,1782.1,166.4,-3647.7,-2676.6,-856.6,8227.4,-3681.7
2905.8,1781.6,169.8,-3647.2,-2674.7,-859,8229.6,-3682.2
2905,1782.4,167.5,-3648,-2679.7,-868,8224.3,-3691.1
2901.1,1778.9,160.6,-3651,-2685.8,-871.1,8219.9,-3696.2
2898.2,1777.4,158.2,-3653.4,-2687.6,-869.5,8217.8,-3694.6
2891.2,1774.9,155.5,-3655.3,-2688.6,-869.5,8216.9,-3694.2
2889.1,1775.9,154.4,-3649.9,-2686.6,-868.5,8217.8,-3693.1
2893.7,1780.2,156.5,-3647.4,-2684.8,-867.9,8218,-3693.9
2897.9,1782.6,157.1,-3645.2,-2683.6,-866.3,8219.5,-3691.6
2902.8,1783.5,161.9,-3649,-2684.3,-867.1,8219.6,-3689.2
2901,1783.5,165,-3656.3,-2682.3,-874,8220.4,-3690.8
2890.1,1776.9,159.1,-3661.5,-2684.2,-874.7,8220.4,-3693.7
2888,1776.5,157.1,-3662.1,-2687.1,-872.8,8217.3,-3695.1
2889.5,1768.6,154.6,-3663.5,-2693.1,-874.4,8210.3,-3701.3
2889,1761.4,152.6,-3669.8,-2697.3,-881.2,8204.3,-3707.7
2881.5,1760.7,152.2,-3669.7,-2693.9,-879,8207.9,-3703.9
2884.6,1763.9,152.2,-3669.1,-2689.1,-876.7,8212.8,-3700.7
2888.7,1767.8,151,-3664.6,-2686.1,-875.7,8215.7,-3697.8
2893.1,1774.4,154.5,-3657.3,-2686.9,-877.4,8215.8,-3695.3
2894.5,1773,152.5,-3658.4,-2688.6,-878,8214.2,-3695.6
2893.3,1771,145.1,-3663.9,-2689.3,-879.4,8213.4,-3696.4
2893.5,1768,142.2,-3664.3,-2694.1,-880,8209.3,-3700.8
2888.5,1763.9,144.8,-3669.7,-2695.4,-877.6,8207,-3703
2881.2,1760.1,146.1,-3665.2,-2688.3,-866.8,8213.7,-3698.4
2888.7,1768.6,154.1,-3656.2,-2684.5,-868.1,8215.6,-3696.3
2895,1775.5,158.9,-3655.6,-2686.4,-873.5,8214.2,-3696.9
2901.7,1777.6,160.5,-3652.8,-2682.4,-873.9,8218.6,-3693.9
2904.1,1777.6,163.8,-3648.8,-2680,-873.1,8220.9,-3692.3
2898.8,1779.5,161.8,-3650.2,-2683.7,-875.2,8219.5,-3692.7
2897.6,1779.6,152.5,-3657.1,-2685.2,-874.8,8218.3,-3693.6
2894.7,1774.2,147,-3664.8,-2683.9,-863.8,8220,-3690.9
2892.2,1775,149.7,-3660.4,-2682.7,-862,8217.2,-3691.5
2897,1773.2,155.6,-3662.5,-2684.5,-866.7,8215.1,-3694.1
2901.3,1774.6,160.3,-3671.9,-2683.8,-871.4,8215.9,-3694.8
2898.9,1774.5,162.3,-3677.2,-2685.7,-881.8,8213.3,-3700.4
2893.4,1775.8,164.1,-3677.1,-2685.7,-884.6,8216.6,-3699.4
2891.1,1772.2,163.1,-3669.4,-2687.3,-883.4,8215.9,-3699.2
2888.9,1765.5,156.5,-3662.7,-2690.6,-883.4,8212.8,-3701
2886.6,1765.5,151.9,-3656.5,-2690.5,-880.4,8213,-3701.3
2882.3,1762.5,145.2,-3656.6,-2691.4,-879.1,8210.3,-3703.9
2882.3,1765.9,141.2,-3654.2,-2697.8,-881.2,8204.2,-3706.4
2883.6,1768.3,140.2,-3654.9,-2695.3,-883.3,8205.7,-3706.5
2884.4,1766.9,142.8,-3659.6,-2696.4,-891.6,8203,-3712.1
2883.2,1770.1,145.9,-3659.2,-2697,-894.3,8204.2,-3711.3
2880.6,1769.4,145.6,-3661.3,-2694.3,-891.5,8207.5,-3709.1
2873.2,1765.4,140.3,-3667,-2694.2,-890.4,8206.6,-3713.9
2868.2,1762,135.7,-3672.5,-2698.1,-894.1,8200.9,-3722.6
2866,1760.4,131.7,-3673.5,-2703.6,-891.7,8196.5,-3722.6
2866.4,1758.4,131.4,-3676.8,-2705.9,-893.2,8192.9,-3723.8
2872.8,1758.2,133.6,-3676.4,-2708.2,-894.3,8190.1,-3723.7
2879.6,1760.5,140.4,-3679.5,-2705.2,-894.7,8193.2,-3719.8
2880.3,1762.1,147.2,-3680.1,-2703.8,-892.6,8195.7,-3719.1
2881.6,1763.6,151.9,-3679.7,-2700.7,-890.5,8198.6,-3717.9
2879.5,1767.7,151.2,-3681.6,-2701.4,-888.1,8198,-3717.3
2873.2,1764.6,144.8,-3681.7,-2699.6,-881.8,8198.6,-3715.5
2875,1758.2,142.1,-3675.3,-2695,-872.3,8203.4,-3710.6
2876.8,1756.5,143.6,-3672.7,-2699.7,-874.1,8199.4,-3712.4
2880.6,1760.8,146.6,-3673.2,-2707.1,-879.6,8194.5,-3716.9
2886.3,1766.7,149.8,-3670.4,-2705.6,-882.4,8196,-3713.7
2875.4,1768.1,149.2,-3667.7,-2701.1,-883.4,8199.6,-3712
2874.2,1769.1,146.7,-3665.9,-2694.5,-882.7,8205,-3709.4
2883.8,1766.8,141.9,-3677.4,-2690.8,-879.1,8209.7,-3706.9
2882.7,1764,135.9,-3678.3,-2689.1,-867.8,8213.2,-3701.9
2879.8,1767.9,133.9,-3672.2,-2691.3,-869.1,8207.5,-3704.2
2875.6,1764,135.4,-3674.2,-2693.2,-873.9,8204.9,-3706.3
2869.8,1758.3,132.8,-3673.8,-2695.6,-878.3,8201.6,-3710.3
2868.6,1758.4,132.9,-3675.6,-2700,-888.7,8196.5,-3718.3
2870.1,1758.5,135.8,-3677.3,-2705.2,-892,8197,-3718.9
2866.6,1758,134.6,-3673.4,-2705,-887.7,8197.9,-3715.2
2867.8,1759.8,135.9,-3668.4,-2700.6,-881.7,8201.5,-3710.3
2877.7,1765.4,142.8,-3663.6,-2702.3,-880.3,8201.6,-3708.3
2882,1763.9,138.6,-3665.9,-2706.7,-884.7,8196.8,-3712.3
2881.3,1759.2,135.6,-3674.4,-2705,-885.9,8197.3,-3711.1
2874.1,1755.6,133.3,-3679.2,-2705.8,-887.8,8195.5,-3713.5
2871.8,1750.3,129.1,-3681.8,-2711,-896.2,8189.7,-3721.5
2872.1,1747.3,130.3,-3681.3,-2710.3,-896.6,8191.6,-3721.3
2869.7,1750,128.9,-3676.5,-2706.8,-892,8194.8,-3718.5
2868.1,1756,131.2,-3678.7,-2707.7,-893.7,8192.6,-3722.3
2869.9,1761.3,132.8,-3695,-2706.8,-899,8193,-3724.9
2862.7,1759.1,132,-3693.6,-2705.9,-894.4,8196.5,-3720.1
2858.2,1753.5,132.9,-3685.5,-2711.5,-893.2,8191,-3721.2
2857.3,1752.7,133.9,-3683.6,-2716.9,-894.9,8185.9,-3721.9
2860.4,1751.5,130.6,-3686.4,-2720.3,-898,8183.5,-3723.3
2865.2,1748.6,125,-3683.4,-2720.5,-897,8183.2,-3724.2
2866.8,1750.3,126.2,-3679.3,-2717.7,-897.6,8184.7,-3723.4
2860.2,1754.5,129.4,-3676.9,-2715.2,-896.8,8186.1,-3721.7
2861.3,1758.1,132.3,-3670.3,-2711.8,-891,8188.6,-3717.9
2863.8,1763.2,135.1,-3663.5,-2705.5,-878.7,8197,-3710
2870.2,1761.3,134.3,-3670,-2703.6,-875.4,8197.4,-3711
2872.2,1763.6,138.2,-3677.3,-2704.6,-880.1,8196.6,-3712.3
2872.9,1756,138,-3681.4,-2705.8,-882.8,8196.2,-3713.8
2873.4,1753.5,135.3,-3679.1,-2711.4,-885.4,8191.3,-3717.3
2874.3,1760.2,138.9,-3676.6,-2711.4,-887.3,8190.7,-3715.8
2870.8,1758,136.4,-3681.2,-2710.2,-885.3,8193.9,-3714.7
2875.4,1756.7,137.9,-3678.9,-2703.3,-874.6,8201.1,-3706.7
2878.1,1758.9,142.7,-3668.1,-2697.3,-871.2,8204.3,-3704.3
2878.2,1761.1,144,-3662.1,-2702,-876.1,8199.5,-3707.5
2872.8,1758.6,139.2,-3661.5,-2705,-881,8195.5,-3710.7
2868,1756.1,132.5,-3664.5,-2708.9,-891.3,8190.4,-3719.4
2863.6,1747,129.4,-3672.2,-2714.2,-895.2,8186.1,-3724.8
2861.9,1745.6,130.1,-3674.1,-2714.9,-892.1,8185.8,-3724.3
2865.7,1748.2,134.9,-3671.7,-2716,-888.1,8187.7,-3720
2868.5,1751.3,135.6,-3668.9,-2712.5,-882.3,8191.2,-3714.2
2873.6,1756,137,-3667.4,-2707.6,-881.2,8195.6,-3711.2
2875.1,1760.7,137.6,-3669.6,-2705.6,-882.7,8198.5,-3709.6
2872,1761.4,136.1,-3671.5,-2708.3,-885.6,8195,-3712.7
2867.6,1761.5,130,-3674.2,-2712.6,-893.8,8189.7,-3721.3
2860.8,1756.1,124.3,-3683,-2713.4,-894.1,8188.9,-3722.5
2859.4,1748.7,124.9,-3690.4,-2715.5,-892,8187.3,-3720.5
2864.3,1746,125.6,-3696.9,-2715.2,-891.8,8187.1,-3721.9
2861.7,1747.4,123.9,-3698.4,-2716.8,-895.3,8185.3,-3727.3
2853.7,1747.4,127.7,-3686.8,-2718.3,-894,8186.2,-3722.9
2851.6,1742.2,131.9,-3678.6,-2712.5,-890.2,8192.4,-3716.1
2855.9,1743.3,135.6,-3671,-2714.2,-890.1,8191.4,-3716.1
2860.9,1739.4,131.9,-3668.8,-2717.1,-892.5,8188.3,-3718.9
2860.3,1738,124.4,-3670.2,-2717.9,-891.6,8187.6,-3721.4
2855.6,1739.3,119.6,-3671.2,-2718.6,-891,8186.9,-3725
2856.6,1739,121.7,-3672.4,-2717.9,-888.7,8186.9,-3725.9
2853.4,1742.6,124.4,-3672.1,-2710.8,-880.8,8192.6,-3719.4
2855.7,1747.7,128,-3672,-2702.2,-867,8201.2,-3708.8
2867.5,1757.8,133.1,-3669.1,-2701,-865.5,8202,-3704.5
2875,1761.4,138.3,-3667.5,-2698.2,-868.4,8205.5,-3701.2
2879.6,1760.8,142.8,-3670,-2698.2,-871.7,8206.3,-3703.5
2877.4,1760.9,140.4,-3667.5,-2700.2,-873.7,8201.5,-3708.9
2875.3,1762.8,139,-3666.8,-2705.4,-877.3,8196.1,-3713.1
2869.6,1756.3,135.6,-3673.8,-2706.4,-876.2,8197.2,-3712.9
2869,1753.3,138.2,-3675.6,-2699.9,-866,8203.5,-3706
2869.6,1758.5,140.1,-3671,-2696.1,-865.2,8205.5,-3704.2
2875.1,1766.8,140.4,-3670.7,-2695.1,-869.8,8207,-3702.4
2880.3,1766.1,144.3,-3671.1,-2692.6,-874.9,8208.7,-3701.8
2879.9,1760.9,143.6,-3671.7,-2696.8,-883.3,8203.5,-3708.7
2875.8,1756.8,134.7,-3676.7,-2701,-885,8201.9,-3710.7
2870.1,1755,128.7,-3673,-2705,-884.5,8198.5,-3713.1
2863.8,1753.1,129.4,-3670.2,-2707.1,-884.6,8196.3,-3714.8
2858,1755.7,131.6,-3669,-2706.1,-880.4,8197.5,-3711.5
2866.3,1758,134.6,-3671.1,-2702.6,-877.7,8199.9,-3709
2875.6,1757,137.4,-3672,-2700.4,-877,8201.5,-3708.6
2879.9,1760.4,140,-3672.4,-2696.1,-876.3,8204.8,-3707
2876.9,1766.7,140.9,-3680.5,-2694.6,-882.4,8205.9,-3709.5
2870.6,1764.8,139.5,-3683.7,-2698.6,-884.8,8204.1,-3711.8
2864.8,1757.2,134.7,-3678,-2699.6,-883.6,8201.7,-3713.7
2862.9,1747.8,129.7,-3678.5,-2701.4,-884.2,8197.6,-3719.5
2861.4,1748.3,127.3,-3680.8,-2711.8,-890.3,8188.1,-3727.5
2861.5,1750.6,129.6,-3678.6,-2716.7,-888.6,8186,-3724
2864.8,1753,131.8,-3675.9,-2714,-884.8,8188.7,-3720.2
2869.2,1756.4,129.5,-3671.2,-2709.7,-883.3,8193.6,-3715.1
2872.3,1759.7,131.5,-3667.7,-2703.1,-883.1,8200.4,-3709.5
2870.2,1757.2,134.6,-3666.8,-2701.5,-880.9,8202.3,-3708.6
2867.3,1753.8,135.3,-3668.7,-2703.4,-876.9,8201.6,-3708.4
2863.9,1754,136.1,-3672,-2707.7,-873.8,8197.8,-3707.4
2861.4,1756,134.8,-3672.4,-2709.5,-870.7,8194.7,-3706.5
2863.3,1755.5,136.6,-3669.8,-2705.9,-861.7,8199.5,-3699.6
2871.1,1760.3,141.4,-3668.9,-2701.4,-862,8202.4,-3697.9
2876.3,1765,144.1,-3669.1,-2696.7,-866,8207.2,-3696.2
2878.3,1773.9,148.4,-3668.3,-2691.5,-868,8213.3,-3693.1
2878.8,1775.8,149,-3664.5,-2688.5,-867.6,8215.9,-3692.3
2878.8,1770.2,143.4,-3661,-2688,-868,8216.2,-3693.9
2872.9,1767.6,139.2,-3658.7,-2692.1,-866.1,8214.1,-3693.7
2868.4,1765.3,135.1,-3659.1,-2693.9,-857,8213.9,-3690.2
2876,1761.8,135.8,-3660.9,-2695,-859.3,8209.9,-3695.2
2881.7,1760.9,143.2,-3662.5,-2692.1,-864.9,8211.5,-3695.3
2875.8,1765.9,149.1,-3667.4,-2688.5,-870.7,8213.9,-3694.8
2882.4,1769.5,154,-3674.5,-2692,-883.5,8209.5,-3700.8
2881.5,1765.2,150.1,-3675.6,-2692.3,-885,8211.4,-3701
2876.4,1767.1,144.4,-3665.1,-2690.9,-881.3,8213.5,-3698.3
2874.1,1765.4,141.9,-3670.7,-2691,-879.8,8212.9,-3699.9
2872.2,1763.1,142.2,-3669.1,-2690.2,-878.3,8212.9,-3701.2
2870.3,1760.6,142.4,-3665.6,-2695.9,-878.7,8207.2,-3704.3
2870.9,1761.7,143.9,-3666.1,-2701.9,-878.9,8202.1,-3707.3
2871.3,1766.4,147.3,-3672.8,-2700,-877.9,8202.7,-3706.5
2875.1,1767.5,143.6,-3679.5,-2700.1,-881.8,8202.1,-3706.8
2877.2,1763.7,142.9,-3684,-2698.3,-879.6,8205.6,-3704.8
2875.9,1762.4,148,-3681.7,-2696,-875.1,8207.8,-3701.2
2873.4,1757.2,146.5,-3678.3,-2700.9,-875.4,8202.8,-3706.2
2875.5,1755.2,141.5,-3680.4,-2706.8,-883.8,8195.6,-3716
2874.8,1751,138.1,-3681,-2708.7,-884,8194.9,-3717.6
2870.4,1745.4,136.2,-3681.8,-2709.3,-881,8193.6,-3717.3
2867.7,1747.4,137.3,-3680,-2708.6,-880.2,8194.2,-3713.5
2868.1,1753.8,140.6,-3677.3,-2704.5,-882.6,8198.7,-3709.9
2870.9,1756.6,142.2,-3673.6,-2703.1,-883.6,8200.6,-3708.7
2872.5,1758.2,141.8,-3672.5,-2698.5,-881.5,8205,-3705.2
2871.7,1757.6,143.8,-3676.6,-2697.3,-879.8,8205,-3703.7
2868.5,1756.5,143.7,-3679.8,-2698.1,-876.1,8203.7,-3702.4
2868.7,1755.6,142,-3678.3,-2694.8,-866,8207.5,-3697.2
2870.2,1753.6,141.4,-3678.5,-2694.3,-865.8,8206.3,-3698.8
2868.6,1749.7,139.9,-3677.8,-2693.1,-868.8,8207.3,-3701.6
2872.7,1753.8,141.2,-3680.6,-2689.7,-870,8211,-3699
2878.9,1757.1,144.9,-3682.1,-2690,-870.7,8210.8,-3698.2
2881.3,1762.8,147.6,-3677.1,-2690.2,-871.6,8210.7,-3696.5
2877,1767.7,146.4,-3684.8,-2685.7,-867.8,8216,-3692.6
2871,1768.2,143.6,-3686.3,-2684,-856.5,8219,-3688.4
2876.8,1769.4,145.2,-3675.7,-2689.3,-858.6,8211.4,-3691.1
2876.4,1766.8,142.7,-3672.4,-2693.2,-864.3,8207.7,-3696.4
2870.7,1763.2,135.8,-3675.3,-2695,-867.3,8205.3,-3700.1
2869.7,1762.5,135.8,-3677,-2700.5,-877,8199.2,-3706.6
2870.3,1760.5,141.6,-3676.4,-2702.8,-881.1,8199.4,-3708.5
2871.4,1759.1,143.6,-3673.8,-2700.1,-878.5,8201.1,-3706.2
2874.6,1765.7,146.8,-3670.3,-2700.6,-876.4,8201.5,-3702.4
2874.2,1770.7,152.2,-3666.3,-2694.8,-874.1,8207.4,-3699.8
2873,1770.5,150.3,-3666.5,-2696.3,-875.3,8205.4,-3702.8
2872.8,1770.2,147,-3666.4,-2700.9,-877.3,8200.5,-3704.9
2872.9,1762.2,142.8,-3669.8,-2705.4,-879.8,8195.2,-3709.9
2871.2,1754.9,136.7,-3675,-2709.3,-888.4,8190,-3718
2866.4,1752.7,134.2,-3679.2,-2707.1,-889,8193,-3717.5
2864.6,1754.8,134.2,-3682.7,-2707,-885.3,8194,-3716
2869.9,1757.8,132.9,-3682.9,-2705.4,-886.6,8193.8,-3717.7
2868.2,1756.2,130.8,-3682.8,-2706.1,-892.9,8191.5,-3723.1
2867.2,1753.8,132.2,-3683.1,-2709.4,-890.7,8190.7,-3719.9
2864.4,1753.2,132.9,-3687,-2712.6,-889.9,8188.2,-3721.2
2858.7,1752.7,132.3,-3685.5,-2713.2,-890.4,8187,-3721.4
2859,1751.1,132.2,-3684.3,-2716.2,-893.1,8183.8,-3723
2857.6,1749.6,129.7,-3689.4,-2714.5,-890.6,8184.6,-3722.2
2858.2,1751.5,126.9,-3693.6,-2710.2,-887.5,8188.6,-3719
2858.9,1754.2,126.5,-3691.9,-2709,-885.3,8190.4,-3717.6
2865.6,1756,131.8,-3686.8,-2706.7,-880.1,8193.4,-3713.8
2871,1761.6,136.9,-3679.4,-2702.9,-870.3,8197.8,-3708.2
2866.4,1765.9,137.9,-3680.4,-2703.4,-872,8195.5,-3710.1
2871.7,1764.5,136.7,-3677.9,-2704.6,-877.6,8195.2,-3711.8
2877.1,1763.1,136.9,-3680.7,-2708.5,-881,8193.4,-3713.6
2873.7,1759.1,137.5,-3690,-2707.9,-881.4,8194.2,-3713.8
2872.5,1760.6,142.9,-3693.2,-2706.1,-880.4,8196.3,-3711.4
2865.6,1764,145.7,-3690.8,-2706.9,-876.1,8197.7,-3710
2875.1,1767.2,149.6,-3682.2,-2704.5,-866.7,8199.6,-3704.4
2887.7,1771.8,153.9,-3670.9,-2699.9,-867.5,8201.2,-3703
2885.6,1772.3,151.9,-3666.8,-2699.4,-871.6,8201.2,-3705.3
2877,1769.8,148.6,-3668.4,-2700.5,-874.6,8199.5,-3708.4
2872.8,1763.4,146.7,-3674,-2705.8,-882.6,8192.6,-3716.1
2871.1,1757.4,142.4,-3678.5,-2711.8,-884.6,8189.3,-3719.5
2868,1756.6,141.2,-3683.8,-2710.6,-881.6,8191.8,-3717.7
2866.2,1759.2,140.2,-3684.3,-2707.6,-878.2,8196.8,-3713.9
2876.6,1766.5,145.8,-3671.2,-2712.5,-878.9,8193.8,-3711.8
2882.7,1771.4,149.6,-3663.8,-2708.5,-880.8,8195.9,-3710.8
2879.1,1773.3,149.2,-3665,-2701.8,-879.5,8201.5,-3706.2
2877,1773.5,146.3,-3668,-2705.4,-879.7,8199.2,-3707.4
2882.1,1769.6,144.7,-3676.4,-2709.8,-887.3,8194,-3713.8
2875.7,1762.7,140,-3683.3,-2710.8,-888.9,8193.2,-3717.3
2867.8,1759.4,137,-3688.1,-2710.3,-885.8,8192.6,-3716.8
2864.1,1759,134.7,-3692.5,-2708.9,-884.1,8192.9,-3717.4
2867.5,1764,135.2,-3701.3,-2711,-890.7,8189.6,-3721.6
2871.4,1762.3,136.1,-3699.1,-2709.1,-888.3,8192.6,-3717.4
2872.7,1760,138,-3685.9,-2704.9,-886.1,8197,-3713.3
2872.2,1762.9,139.7,-3678.6,-2706.9,-886.3,8195.2,-3712.8
2871.7,1762.7,139.9,-3681.6,-2708.4,-886.9,8193.4,-3713
2869.2,1762.1,141.4,-3690.8,-2708.4,-883.8,8194,-3712.4
2866.3,1759.1,142.8,-3694.9,-2711,-882,8191.9,-3714.8
2861.5,1757,142.2,-3689.6,-2709.3,-879.1,8192,-3714.5
2865.6,1758.4,139.8,-3684,-2706.1,-873.3,8194.3,-3710.6
2872.9,1763.6,142.4,-3679.3,-2697.6,-861.3,8203.9,-3701
2880,1768.6,150.6,-3679.1,-2689.8,-859.8,8209.2,-3695.7
2881,1768.5,154.6,-3675,-2682.8,-861.5,8215.7,-3691.7
2881.6,1770.5,154.7,-3668.2,-2683.9,-863.1,8215.7,-3692
2883.2,1771.2,153.3,-3668.5,-2690.6,-865.6,8208.9,-3698.1
2885.7,1775.6,153.1,-3667.8,-2695.3,-868.9,8204.7,-3700.4
2878.2,1771.2,146.9,-3672.3,-2697.2,-868.8,8204,-3701.6
2875.6,1775.1,145.8,-3669.8,-2693.4,-859.2,8208.1,-3694.9
2879.4,1782.3,149.4,-3661,-2689.6,-860,8209.6,-3693.3
2885.6,1782.2,152.5,-3663.9,-2685.5,-865.4,8213.9,-3692.7
2893.1,1783.9,156.1,-3668.3,-2682.4,-870.9,8216.1,-3693.4
2891.2,1781.1,155.5,-3675.2,-2685.3,-881.5,8212.5,-3698.9
2884.8,1771.3,151.4,-3678.3,-2688.8,-884.5,8210.4,-3701.9
2881.1,1766.9,148.6,-3679.1,-2688.6,-881.2,8209.5,-3702
2876.5,1761.2,146.5,-3682,-2691.9,-880.1,8205.9,-3705.4
2880.5,1763.1,147.8,-3678.5,-2694.3,-880.1,8204,-3705.4
2892.4,1771.7,153.7,-3687,-2693.7,-881.5,8204.9,-3703.9
2884.5,1774.6,157.9,-3698.9,-2687.9,-881,8208.8,-3700.9
2870.6,1778.2,159.3,-3692.6,-2685.2,-883.2,8210.8,-3697.9
2877,1775,155.3,-3688.1,-2687.4,-892.3,8209,-3703.1
2880.8,1765.2,148.3,-3682.6,-2694.2,-894.7,8204.7,-3707.9
2878.1,1759.7,144.9,-3679.4,-2696.6,-892.6,8201.1,-3709.3
2872.7,1752.2,140,-3685.4,-2700,-893.4,8197.3,-3715
2868.3,1748.8,137.9,-3696.6,-2704.1,-896.8,8191.4,-3721.9
2862.4,1743,137,-3695.2,-2702.7,-889.9,8193.2,-3719
2867.1,1745,136,-3692.4,-2701.5,-883.6,8194.7,-3715.9
2868.3,1754.9,138.8,-3687.8,-2699.5,-883,8196.5,-3713.1
2876.3,1759.6,145.6,-3685,-2697,-885.8,8199.5,-3710
2873.9,1758.8,145.4,-3687.2,-2695.5,-884.4,8202.1,-3709.6
2870.5,1756.6,142.6,-3688.3,-2694.7,-882.8,8202.1,-3711.7
2867.5,1754.4,137.3,-3690.4,-2695.6,-880.5,8200.4,-3711.8
2864.1,1751.6,132.6,-3692.6,-2693.8,-875.5,8200.8,-3708.1
2859.5,1750.4,134.3,-3692.5,-2689.9,-863.9,8206.7,-3700.5
2870,1755.6,139.1,-3691.1,-2690.3,-865.1,8206.7,-3698.6
2880,1760,142.4,-3688.7,-2692.2,-870,8206.4,-3698.5
2886.1,1764.4,150.8,-3682.6,-2688.5,-872.5,8210.8,-3696.1
2884,1765.9,156.8,-3682.5,-2687.9,-873.3,8211.6,-3693.8
2880.1,1769.3,155.4,-3684.9,-2688,-874.1,8211.5,-3693.7
2878.9,1766.6,147.2,-3688.2,-2690.1,-873.8,8209.8,-3697.2
2879.2,1762.8,138.2,-3687.7,-2691.5,-865.1,8208.5,-3694.8
2874.5,1761,140.5,-3692.5,-2689.5,-865.5,8207.9,-3694.1
2870.4,1761.2,150,-3694.7,-2687.4,-868.8,8210,-3694.3
2872.5,1763.8,151.7,-3687.7,-2687.9,-872.4,8210.1,-3696.5
2874.7,1760.6,149.8,-3689.5,-2688.8,-881.3,8206.7,-3702.1
2876,1761.4,154.4,-3694.1,-2686.9,-881.3,8210.3,-3699.6
2877.7,1761.2,155.2,-3692.8,-2688.4,-877.3,8210.6,-3696.8
2872,1755.7,147.5,-3694.4,-2689,-874.5,8210.3,-3697.1
2872.2,1757,147.7,-3695.7,-2689.8,-871.5,8210.7,-3694.5
2874.3,1757.3,146.1,-3706.6,-2691.8,-871.6,8209.2,-3693.1
2871.9,1752.6,145.8,-3700,-2693.6,-874,8206.5,-3697.1
2872.9,1751,147.4,-3690.3,-2692.5,-879.1,8204.8,-3701.5
2869.2,1752.8,146.1,-3689.1,-2693.2,-889.9,8202.9,-3706.4
2871.9,1754.6,143,-3685.5,-2693.1,-891.8,8205,-3705.4
2871.8,1752.6,143.7,-3682,-2692.2,-887.1,8206.9,-3702.3
2868.9,1752,144.3,-3684.4,-2696.6,-887.8,8202.3,-3706.2
2864.6,1748.2,140.9,-3692.1,-2700.7,-894.1,8197,-3714
2862.6,1746.6,139.5,-3699.3,-2705.6,-892.2,8194.4,-3712.6
2861,1745.3,136.9,-3710,-2705.2,-889.1,8194.1,-3711.9
2860.7,1745.8,136.1,-3709.7,-2703.2,-887.5,8195,-3710.2
2864,1748.5,135.7,-3701.2,-2702,-886.5,8196,-3708
2867.7,1750.5,132.4,-3696.1,-2700.3,-883.6,8198.2,-3706.1
2874.6,1754.7,134.5,-3697.1,-2699,-881.1,8199.9,-3703.4
2874.9,1753.6,143.1,-3696.3,-2698.4,-879.7,8200,-3700.9
2866.8,1752.6,141.1,-3693.6,-2702.2,-875.6,8197.4,-3699.5
2868.7,1752,142.8,-3687.6,-2699.8,-867,8201.1,-3695.9
2865.5,1751.9,143.6,-3681.5,-2698.9,-867.7,8200.2,-3697.3
2860.2,1753.5,147,-3678.5,-2700.1,-873.3,8199.3,-3699.7
2867.4,1755.1,150,-3677.4,-2697.1,-876,8203,-3698.3
2875.4,1752.7,150.3,-3680.6,-2696.2,-877.3,8204.4,-3697.7
2879,1753.7,153.6,-3678.5,-2695.4,-879.9,8205.5,-3695.6
2879.3,1758.1,153.3,-3675.7,-2694.7,-880.4,8207,-3694.6
2876.8,1761.9,149.6,-3674,-2693.3,-872.3,8208.8,-3690.1
2877.1,1763.5,147,-3672.1,-2693.6,-873.3,8205.9,-3692.1
2874.9,1762.6,141.5,-3672.7,-2693.4,-877,8205.6,-3695.3
2873.3,1760.8,139,-3675.3,-2699.5,-882.1,8200.3,-3702.6
2873.3,1760.8,140.5,-3681.8,-2705.8,-892.1,8193.5,-3710.5
2867.2,1759.7,142.1,-3688.1,-2702.5,-892,8199.1,-3708.6
2865.5,1758.9,142.6,-3690.9,-2700.4,-888.6,8202,-3704.6
2872.8,1761.5,150.1,-3690.6,-2699.8,-887.2,8203.6,-3701.2
2875.1,1765.2,154.8,-3684.3,-2698.7,-883.4,8205.8,-3698.4
2869.9,1766.2,150,-3686,-2698.6,-882.2,8204,-3699.1
2869.1,1763.2,150,-3682.7,-2702,-882.8,8201.1,-3699.8
2871.7,1759.2,145,-3677.4,-2706.9,-887,8196.3,-3704.9
2869.7,1755.7,135.8,-3677.7,-2708.1,-895.3,8193.3,-3711.2
2862.7,1754.8,139.3,-3681,-2709.9,-893.2,8192.6,-3710.2
2861.8,1756,146.1,-3684.2,-2708.8,-887.8,8195,-3705.1
2863.1,1758.7,144.5,-3683.2,-2709.6,-886.9,8195.1,-3705.4
2868.3,1758.5,141.5,-3683.8,-2709,-891,8195.5,-3708.7
2865.5,1753.4,142,-3680.7,-2707.7,-887.5,8198.2,-3705.5
2857.8,1754.2,141.1,-3682.4,-2707,-884.9,8197.5,-3705.8
2854.3,1759.2,141,-3688.9,-2706.3,-885.9,8196.6,-3705.9
2855.4,1756.6,137.2,-3689.3,-2706.8,-887.7,8196.2,-3706.6
2863.6,1753.5,136.4,-3687.1,-2709.4,-886.9,8194.7,-3706.6
2868.6,1758.1,136.7,-3684.1,-2709.3,-886.9,8194.6,-3705.5
2866.5,1763.8,135.8,-3680.9,-2707.8,-886.8,8195.4,-3703.3
2866.4,1765.2,139.2,-3678.6,-2701.3,-879.9,8201.8,-3697.1
2870.5,1764.9,144.4,-3675.6,-2694.3,-867.4,8209.6,-3688.5
2872.1,1765.9,143.2,-3675,-2692.3,-866.5,8209.5,-3688.6
2872.5,1765.4,142.8,-3669.5,-2693.1,-870.1,8208.5,-3691.1
2871.2,1764.2,145.9,-3666.2,-2696.2,-873.1,8206.8,-3693.8
2869.4,1761.7,148.9,-3668.1,-2697.9,-874,8205.1,-3694.5
2870.7,1765.6,150.9,-3671.9,-2698.7,-875.6,8205.2,-3694.2
2874.9,1765.9,150.2,-3681.9,-2695.4,-872.6,8210.9,-3690
2874.6,1768.1,149.1,-3683.6,-2689.7,-860.2,8217.4,-3681.3
2880.3,1771.1,152.4,-3674.1,-2686.3,-860.5,8219,-3680.2
2885.3,1770.7,154.2,-3675.4,-2685.5,-864.6,8220.2,-3681.6
2883.7,1770,148.6,-3672.8,-2689.2,-868.7,8216.1,-3686.2
2878.4,1767.5,143.9,-3672,-2697.4,-878.8,8207.3,-3696.4
2873.7,1761.6,139.9,-3673.2,-2704.2,-884.1,8202.7,-3702.8
2872.3,1760.9,134.9,-3672,-2706.8,-884.8,8199.6,-3703.8
2868.9,1765,138.2,-3669.5,-2704.9,-883.7,8202.5,-3699.4
2861.9,1771.4,143.6,-3663.8,-2701.9,-881.8,8206.8,-3695.4
2869.8,1775.4,146.2,-3671.5,-2696.4,-880.8,8211.6,-3691.9
2876.9,1773.6,149,-3677.4,-2690.3,-878.7,8216.8,-3686.7
2873.8,1766,148.2,-3676.1,-2696.4,-879.3,8211.6,-3688.5
2871.6,1763.3,146.8,-3678.1,-2700.7,-887.8,8205.6,-3696.8
2866.8,1757.8,141.1,-3682.6,-2704.1,-889.8,8203,-3701.2
2860.1,1754.3,134.1,-3682,-2703.9,-887,8202.1,-3700.1
2860.3,1752.2,133.1,-3680.7,-2706,-887.9,8199.5,-3702
2860.1,1752.3,133.5,-3681.3,-2709.3,-892.8,8196.7,-3707
2863.3,1753.7,135.7,-3676,-2709,-889.4,8198.4,-3702.6
2867.6,1754.7,135.6,-3671.9,-2702.4,-885.8,8203.7,-3697.5
2867.9,1754.3,136.6,-3669.8,-2698.3,-884,8206,-3697.4
2865.1,1757.2,140.9,-3670.5,-2703.1,-886.6,8201.7,-3699.7
2862.6,1759,140.7,-3676.4,-2707.5,-884.6,8198.5,-3700.5
2861.4,1756.9,134.2,-3678.9,-2708.7,-882.3,8197.6,-3701.2
2859.4,1754.1,128.2,-3677.8,-2708.4,-879.8,8197.4,-3701.3
2862.8,1755.2,132.8,-3673.5,-2706.6,-877.4,8198.7,-3700.5
2868.3,1760,141.6,-3668.9,-2701.6,-868.6,8204.7,-3694
2873.7,1769.5,145.2,-3666.1,-2696.2,-868.4,8208.1,-3690.7
2874.5,1769.8,146.2,-3661.2,-2692.5,-872.1,8211.7,-3688.5
2877.7,1764.5,145.5,-3662.4,-2692.7,-873.7,8212.9,-3687.8
2877.8,1768.6,145.6,-3669.1,-2694.8,-875.8,8209.9,-3690.6
2873.6,1768.7,143.7,-3682,-2693.5,-876.8,8209.2,-3693.3
2869.7,1761,139.4,-3695.6,-2691.3,-874.3,8210.3,-3693.6
2870.5,1760.7,141,-3689.6,-2694.5,-866.8,8209.4,-3690.9
2874.2,1766.6,146,-3676.8,-2694.9,-867.3,8208.8,-3689.5
2876.5,1771.7,149.4,-3672.2,-2694.4,-871.4,8209.4,-3688.9
2881.3,1772.4,150.4,-3665.9,-2693.7,-874.5,8209.1,-3690.3
2881.9,1773.5,153.8,-3673.2,-2697.7,-882.5,8203.8,-3696.9
2870.5,1767.8,153,-3677.3,-2699.8,-884.1,8203.4,-3698.7
2870.1,1760.1,148,-3672.7,-2701.5,-880.9,8201.9,-3699.4
2868.4,1756,141.7,-3672.8,-2706.7,-878.7,8197.6,-3701.8
2865,1759.8,141.8,-3668.3,-2704.4,-875.3,8199.1,-3699.5
2866.2,1763.2,141.2,-3667.8,-2700.9,-873.4,8201,-3696.8
2870.8,1765.5,141.6,-3669.1,-2697.3,-873.2,8203.9,-3695.3
2877,1769.3,143.1,-3669.9,-2695.6,-874.8,8205.2,-3694.3
2878.7,1770.9,147.5,-3670.2,-2694.1,-882.5,8206.9,-3694.2
2872.6,1765.5,144.8,-3675.5,-2697.5,-883.7,8205.7,-3695.4
2872.7,1763.4,141.3,-3679,-2699.7,-882,8204.2,-3695
2863.2,1758.7,134.6,-3681.5,-2700.9,-880.4,8203.4,-3698.1
2861,1755.1,126.1,-3689.4,-2706.3,-886.4,8196.9,-3705
2865.3,1750.8,122.6,-3692.2,-2705.2,-883.8,8199.2,-3699.7
2867,1755,125.2,-3686.8,-2705.9,-882.1,8199.3,-3697.3
2869.7,1755.9,133.8,-3682.7,-2703.7,-881.1,8201.6,-3695.8
2872.7,1761.4,144.9,-3676.5,-2702.8,-883.7,8204,-3694.4
2874.7,1763.3,150.4,-3674.6,-2702.8,-885.9,8205.3,-3695
2876.1,1758.1,148.3,-3680.1,-2705.4,-887.4,8202.7,-3698.7
2872.7,1758.4,146.5,-3682.6,-2706.8,-886.7,8200.5,-3699.1
2865.4,1755.6,141.8,-3687.5,-2708.4,-882.5,8197.8,-3699
2866,1758,141.3,-3685.9,-2708.2,-874,8198.6,-3695.5
2875.5,1767.4,144.4,-3684.4,-2705,-875.9,8199.3,-3695
2878.9,1770,145.8,-3680.4,-2701.8,-881,8203.3,-3696.7
2882,1773.1,152.6,-3671.6,-2699.3,-881.2,8207,-3694.3
2885.4,1772,155.8,-3671.2,-2700.2,-881.9,8206,-3694.9
2880.7,1774,153.7,-3671.1,-2696.5,-882.5,8208.7,-3694.2
2868.3,1766.8,147.1,-3678.8,-2699.8,-880.5,8206.8,-3694.7
2867.6,1761.9,140.8,-3676.6,-2699.2,-869,8208.6,-3689.5
2874.6,1759.9,138.6,-3672.7,-2698.6,-868.7,8205.4,-3691.6
2876.7,1763.9,138.3,-3672,-2699.5,-873.1,8204,-3693.9
2872.8,1766.4,138.3,-3672.3,-2696.2,-875.1,8207.1,-3691.7
2872.1,1767.7,138.7,-3675.3,-2699.5,-885.9,8202.7,-3697.4
2871.6,1766.4,137.4,-3677.7,-2696.7,-888.3,8207,-3696.4
2878.3,1763.8,134.7,-3683.5,-2695.4,-883.2,8209.5,-3694.6
2878.7,1765,135,-3684.7,-2701.7,-881.8,8203.6,-3697.6
2874.5,1766.9,134.5,-3680.3,-2702.1,-878.6,8203.3,-3695.8
2868.7,1765.5,130.2,-3684.3,-2701.6,-878.8,8202.4,-3696.2
2864,1764.8,129.5,-3690.5,-2702.3,-880.2,8200.9,-3697.6
2865.6,1765.4,133.5,-3692.4,-2702.1,-882.5,8199.5,-3698.1
2868.8,1760.8,135.4,-3694.1,-2701.9,-891.1,8198,-3702.4
2870.3,1759.4,137.4,-3696.1,-2701.6,-892.3,8200.8,-3700.7
2871.9,1762.8,140.3,-3697.8,-2702.9,-890.3,8200.9,-3699.6
2869.8,1761.7,137.5,-3699.9,-2705.5,-891,8198,-3705.7
2861.1,1758.1,134.2,-3700.1,-2712.1,-896.5,8191.1,-3715.2
2857.1,1754.2,129.2,-3692.4,-2716.3,-894.7,8188.3,-3714.3
2858,1747.7,124,-3690.8,-2717.8,-893.3,8186,-3714.7
2859.2,1745.8,124.7,-3690.5,-2716,-893.3,8186.3,-3713.5
2859.5,1749.8,127.4,-3690.3,-2713.1,-893,8190.6,-3709.8
2859.4,1753.5,126,-3694,-2708.8,-890,8193.7,-3708.7
2866,1757.2,127.1,-3691.6,-2707,-889.6,8194.7,-3707.8
2869.6,1759.6,130.4,-3689.4,-2709.1,-889.6,8194.6,-3707.2
2866.4,1756.3,130.8,-3699.6,-2708.4,-884.5,8194.9,-3705.6
2867.6,1756.6,133.7,-3707.1,-2704.6,-874.7,8199.1,-3699.7
2867,1756.1,131.5,-3700.5,-2705.4,-878.3,8195.3,-3704.3
2863.6,1757.9,126.8,-3690.9,-2706.3,-885.4,8194.1,-3707.3
2863.2,1760.9,130.9,-3691.7,-2705.1,-887.7,8196.6,-3704.2
2860.1,1761.5,135.4,-3693.6,-2705.4,-888.1,8197.1,-3703.3
2862.6,1759.3,139.7,-3690,-2703,-890.9,8199,-3702.8
2869.2,1756.2,136.6,-3688.3,-2700.4,-889.1,8203.2,-3700.9
2872.1,1760.7,129.8,-3685.5,-2700.3,-878.1,8204.1,-3695.8
2870,1764.1,130.8,-3682.6,-2704,-879.3,8198,-3700.2
2868.5,1760.4,133.5,-3686.1,-2703.6,-883.7,8197.4,-3702.4
2867,1753.8,133.2,-3703.3,-2705.1,-889.3,8194.5,-3703.2
2861.2,1750,131.1,-3719.1,-2707.5,-898.3,8191,-3707.7
2860.2,1749.2,131.1,-3719.1,-2710.7,-897.8,8191,-3710.1
2862.7,1750.3,131.7,-3711.2,-2709.8,-893,8192.1,-3710
2863.1,1752.9,130,-3704.5,-2706.4,-891,8195.2,-3708.1
2867.6,1759.6,132.2,-3694,-2705.7,-889.6,8197.2,-3704.5
2865.2,1757.1,129.4,-3694.9,-2707.2,-890.1,8195.6,-3705.3
2866,1755.2,127.9,-3699.2,-2707.5,-891.8,8194.7,-3706
2862.1,1751.1,124.4,-3698.3,-2710.9,-895.6,8190.3,-3710.3
2858.1,1748.4,122.5,-3699.6,-2715.4,-905.4,8183.8,-3718.5
2857,1749.3,122.9,-3701,-2719,-906.5,8182,-3718.3
2860.4,1748.5,123.3,-3702.3,-2717.1,-902,8185,-3714.4
2865,1748.2,124.4,-3706.5,-2714.6,-901.5,8186.2,-3716
2865.5,1751.5,124.2,-3709,-2715.7,-907.2,8184.4,-3719.8
2861.7,1750.2,122.1,-3710.1,-2716.2,-901.7,8186.7,-3715.2
2856.3,1747,120.1,-3712.6,-2717.4,-897,8186.1,-3714
2854.6,1743.1,122.9,-3713.4,-2716.6,-896.2,8186.4,-3713.3
2855.2,1742.5,119.5,-3712.1,-2715.9,-900,8186.8,-3716
2850.3,1744,110.4,-3706.7,-2719.6,-899.7,8184.4,-3718.1
2851.2,1748.3,112.7,-3700.4,-2721.1,-898,8184.1,-3715.3
2851.3,1747.8,116.8,-3702.6,-2717,-893.9,8187.7,-3711.9
2853.7,1749.5,121.7,-3706.8,-2710,-886.1,8193.6,-3705
2857.5,1750.9,123.5,-3706.1,-2699.4,-872.5,8204.7,-3694
2862.4,1751.2,120,-3706.2,-2699.5,-872.8,8203,-3694.1
2867.7,1755.7,126.7,-3716.7,-2702.8,-879.6,8198.8,-3696.6
2859.6,1756.7,130.7,-3717.6,-2705.3,-885.3,8197,-3700.1
2856.2,1749.7,124.5,-3705,-2706.4,-886.3,8195.2,-3704.2
2859.5,1748,122.4,-3695.9,-2704.5,-886.1,8196.6,-3705.2
2861.2,1750.8,127.3,-3693.4,-2706.8,-883.8,8196.4,-3705.1
2863.7,1753.4,129.4,-3690.9,-2702,-873.9,8201.6,-3698.4
2864.9,1757.2,132.6,-3686,-2690.8,-871.7,8208.7,-3694.4
2868.9,1759.8,135.4,-3687.7,-2693.2,-876.6,8206.3,-3697.1
2876.3,1761.7,138,-3697.7,-2701,-884.9,8198.3,-3701.2
2873.3,1757.1,132,-3708.5,-2704.3,-895.9,8194.2,-3708.4
2865.3,1754.7,123.3,-3703.7,-2713.1,-901.6,8189.2,-3714.1
2860.3,1752.8,122.1,-3697.2,-2715.5,-900.1,8187.3,-3714.5
2863,1751.6,126.2,-3694.6,-2714,-896.6,8189.7,-3713
2863,1754.7,128.9,-3692.9,-2709.8,-891.4,8194.2,-3708
2867.4,1759,128.9,-3701.1,-2705,-887.5,8198.7,-3703.9
2871.2,1766.5,133.4,-3700.2,-2703.1,-886.4,8200.9,-3701.5
2865.9,1761.1,127.6,-3696.5,-2704.5,-889,8198.3,-3703.8
2862.5,1756.7,119.6,-3698.7,-2708.3,-896,8194.1,-3708.5
2857.7,1751.4,118.2,-3700.4,-2715.5,-897.2,8188.6,-3712.8
2856.1,1749.1,119.8,-3706.6,-2717.3,-894.2,8185.1,-3715.2
2858.3,1745.6,120.2,-3713.3,-2715.6,-894.6,8184.8,-3719
2862.2,1743,119.1,-3718.6,-2713.9,-898.8,8185.4,-3723.3
2863.2,1743.4,122,-3719.6,-2710.2,-893.7,8190.3,-3717.6
2865.6,1749.6,127,-3701.6,-2711.8,-889.4,8189,-3716.4
2864.3,1756,129.8,-3688.1,-2713.8,-889.5,8187.1,-3715.9
2863.8,1755.7,129.6,-3689,-2713.2,-892.1,8187.9,-3715.3
2862.3,1750.6,129.3,-3694.3,-2712.6,-892.2,8188.5,-3715.6
2860,1748.5,126.7,-3695.9,-2717,-891.8,8185.8,-3716.4
2858.3,1750,122.3,-3696.7,-2718.9,-889.1,8185.3,-3714.8
2859.2,1752.1,125.1,-3696,-2715.3,-882.4,8188.7,-3709.7
2862.5,1757.7,131.3,-3689.3,-2709.4,-872.8,8195.9,-3701.5
2868.3,1767.1,134.5,-3684.6,-2703,-872.7,8200.5,-3697.7
2873.6,1772.2,134.9,-3683.3,-2699.9,-875.2,8204.4,-3696.3
2876.9,1774.8,132.9,-3682.5,-2700.8,-875.3,8206,-3695.6
2876.8,1773.7,133.2,-3686.7,-2701.3,-873.6,8205.4,-3697.3
2874.7,1771.4,133.3,-3684.3,-2703.5,-875,8201.7,-3701.4
2866.9,1764.2,133.9,-3690.1,-2705.3,-875,8199.6,-3702.1
2873.6,1760.6,140,-3700.1,-2703.6,-866.5,8202.3,-3694.7
2878,1768.7,142,-3701.3,-2698,-865.9,8206.3,-3691.3
2879.6,1776.6,138.6,-3693.4,-2697.7,-869.8,8207.1,-3692.6
2881.1,1781.8,139.9,-3682.1,-2696.8,-872.8,8207.7,-3694.6
2880.8,1776.5,139.6,-3677.4,-2700.9,-882.5,8202.5,-3703.3
2878.3,1768.6,139,-3676.9,-2708,-886.7,8197.9,-3707.7
2873.3,1763.3,135.5,-3677.1,-2708.8,-884.3,8197.8,-3706.2
2869.4,1760.5,132.1,-3679.4,-2711.5,-882.7,8195.2,-3707.4
2870,1762.6,135.4,-3682.9,-2711.9,-881.2,8194.9,-3707.9
2872.8,1766.3,137.3,-3683.8,-2708.7,-881.8,8196.9,-3707
2877,1766.3,138.8,-3687.3,-2705.2,-883.3,8200.5,-3705.3
2879.3,1767.3,140.7,-3688,-2702,-883.5,8202.4,-3704.2
2877.4,1770.5,139.8,-3684.8,-2702.6,-888.4,8201.6,-3706.9
2870.6,1765,136.2,-3684.9,-2703.5,-886.6,8202.9,-3707.7
2871.9,1758.1,134,-3688,-2707,-884.1,8198.6,-3710.5
2868,1754.3,129,-3691.5,-2710.3,-884.6,8194.1,-3714.2
2860.8,1756.5,123.3,-3698.5,-2717.6,-892.7,8186.1,-3721.8
2859.8,1757.1,123.5,-3700.9,-2718,-892,8186.8,-3719.6
2861.9,1756.6,125.8,-3699.7,-2714.8,-888.7,8189.6,-3715.9
2863.8,1758.5,129.4,-3695.2,-2711.6,-888.7,8191.6,-3712.6
2873.7,1762.4,134.6,-3690.3,-2710.2,-891.8,8193.9,-3710.1
2874.1,1760.3,132,-3689.7,-2705.6,-890.1,8198,-3709.4
2865,1758,129.1,-3688,-2706.7,-888.5,8196.5,-3709.9
2863,1759,125.1,-3692.9,-2710.9,-885.7,8192.7,-3708.3
2861.6,1757.2,119.9,-3699.4,-2710.9,-879.6,8191.7,-3706.7
2857.5,1758.4,120.6,-3689.7,-2708.2,-868.2,8194.2,-3703.1
2860.3,1762.4,122.9,-3679.6,-2705.7,-867.7,8193.8,-3700.6
2862.5,1766.8,126.2,-3673.7,-2704.1,-871,8196.9,-3700.1
2868.2,1773.8,130.8,-3667.4,-2703.9,-873.9,8200.3,-3699.1
2879.3,1776.9,136.9,-3665.4,-2703.6,-876.3,8200.3,-3698.3
2878.3,1774.6,137.8,-3671.4,-2702.8,-879.2,8199.7,-3699
2872.8,1771.7,134.6,-3683.8,-2701.9,-878,8201.7,-3699.8
2872.7,1768.1,135.5,-3694.3,-2701.1,-868.1,8203.7,-3695.9
2873.6,1765,136.9,-3691.2,-2700.5,-870.4,8201.6,-3698.1
2870.8,1761.4,134.9,-3684.9,-2702.4,-879.2,8199.4,-3702.9
2873.9,1760.7,135.9,-3683.4,-2701.4,-885,8199.4,-3705.4
2880.2,1760.3,137.1,-3686,-2706.4,-895.2,8192.5,-3713.9
2879.7,1760.3,137.6,-3689.1,-2705.4,-897.8,8195.8,-3711.2
2875.7,1758.3,137.7,-3688.7,-2703.2,-894.7,8198.8,-3708
2868.3,1754.2,133.8,-3687,-2704.8,-892.3,8197,-3708.8
2859.4,1755.6,129.5,-3688.5,-2704.2,-887.7,8198.3,-3705.3
2854.3,1754.3,125.8,-3698.6,-2702.3,-885.3,8198.5,-3706.1
2856.5,1751.9,122.3,-3705.3,-2702.2,-883.8,8198.6,-3706.3
2857.8,1753.1,124.1,-3706.5,-2704.1,-885.3,8196.8,-3706.5
2860.7,1757.1,128.7,-3702.7,-2709.1,-895.5,8191.8,-3713
2859.5,1756.7,126.4,-3697.4,-2708.5,-897.4,8192.7,-3712.8
2862.5,1756.6,123.3,-3695.5,-2706.8,-891.6,8195.9,-3707
2865.2,1758.5,120.9,-3701.1,-2708.9,-890.5,8194.2,-3709.4
2861.9,1754.4,118.1,-3710.1,-2714,-896.1,8187.4,-3719
2855.9,1751.1,119.4,-3708.8,-2718,-892.8,8185.3,-3717.5
2852.3,1749.3,119.4,-3711,-2722.2,-891.5,8182.2,-3717.8
2854.1,1748.5,119.4,-3706.5,-2722.9,-892,8182.2,-3716.1
2845.1,1753.5,119.2,-3693.1,-2721.4,-892.9,8184.3,-3712.8
2849.2,1754.5,119.3,-3688.7,-2719.7,-891.5,8186.1,-3711.5
2860,1756.5,122.1,-3691.9,-2717.1,-891,8188.3,-3709.5
2862.8,1756.9,127,-3691.6,-2715.7,-890.1,8189,-3707.8
2862.1,1753.7,127.4,-3692.7,-2717.6,-886.5,8187.1,-3707.1
2860,1756.1,126.1,-3686.6,-2714.4,-877.2,8191.8,-3702.1
2858.7,1756.1,126.5,-3688.9,-2712.4,-877.7,8192.3,-3702.3
2859.7,1758.2,123.7,-3692.4,-2713.6,-881.8,8190.8,-3704.2
2863.7,1762.4,127.5,-3689.7,-2713.5,-884.9,8190.9,-3703.5
2866.5,1763.3,133.7,-3696.1,-2710,-884.3,8194.4,-3700.8
2867.9,1761.5,139,-3699.4,-2710.1,-882.5,8196,-3699
2869.8,1765.1,142.4,-3692.5,-2709.4,-880.3,8198,-3696.3
2865,1766.2,140.5,-3688.5,-2705.5,-871.8,8201.2,-3691
2857.6,1768.3,135.8,-3684.9,-2704,-872.8,8199.5,-3689.7
2854,1769.7,130.8,-3689.6,-2702.3,-878.4,8200.7,-3689.7
2846.7,1763.4,123.2,-3700.9,-2699.9,-883,8202.2,-3693.2
2849.2,1759,118.8,-3705,-2704.9,-894.7,8196,-3701.2
2850.3,1753.9,121.1,-3704.4,-2708.3,-897.7,8194.6,-3704.2
2857.3,1752.1,127.2,-3705.7,-2708,-896.7,8194.2,-3704.5
2866.1,1753.8,133.5,-3700.9,-2706.6,-895.3,8196.2,-3702.7
2872.7,1751.3,137.4,-3695.4,-2704.1,-890,8199.5,-3698.1
2872.2,1750.1,136,-3696.7,-2705.8,-888.2,8197.3,-3699.4
2871.3,1751.8,137.2,-3698.6,-2709.5,-890.2,8193.6,-3701.9
2867.6,1748,131.8,-3704.4,-2710.2,-892.1,8191.6,-3705.9
2870.1,1744.5,124.7,-3708.1,-2715.1,-902.8,8185.3,-3714.5
2867.3,1744.8,121.6,-3705.2,-2718.1,-904.3,8184.7,-3714.2
2861.2,1746,125.5,-3703.7,-2715.2,-899.3,8188.2,-3710.6
2856.4,1745.1,128.1,-3707.2,-2713.5,-898.3,8189,-3712
2865.5,1741.6,127.9,-3710.2,-2713.9,-901.5,8187.9,-3715.7
2870.5,1734,125.4,-3709.2,-2714.2,-896.1,8188.2,-3712.7
2869.6,1733.6,123.1,-3711,-2715.2,-893.6,8186.9,-3713.3
2868.7,1739.2,127.4,-3711.7,-2721,-897.2,8181.6,-3715.9
2866.7,1739.1,127.4,-3711.2,-2723.5,-904.3,8178.2,-3718.7
2864.5,1734.4,124.4,-3708.3,-2721.6,-902.6,8180.4,-3718
2864.8,1732.6,123.6,-3703.9,-2717.4,-898.6,8183.5,-3714.6
2862,1731.2,124.1,-3701.8,-2716,-896,8184.5,-3711.6
2863,1736.5,128.1,-3698.7,-2710.3,-889.2,8190.2,-3703.7
2864.4,1741,135.7,-3692,-2706.5,-877.2,8196.3,-3695.1
2867.9,1745.3,138.2,-3691.2,-2705.6,-876.4,8195.9,-3693.9
2868,1749.6,134.3,-3694.3,-2704.7,-880.6,8195.8,-3695.8
2867.4,1751.8,132.6,-3694.7,-2708.3,-883.7,8194,-3698.1
2866.2,1745.6,128.9,-3696.3,-2709.2,-883.4,8192.7,-3699.1
2868.1,1739.3,129.1,-3698.6,-2707.3,-883.7,8193.4,-3699.2
2868.4,1741.1,132.2,-3698.2,-2705.4,-881.5,8196.1,-3696.2
2868.4,1743.6,134.4,-3695.5,-2700.2,-871.2,8202,-3688.5
2873.3,1747.5,137.4,-3689.8,-2693.5,-870.5,8206.8,-3684.3
2875.8,1750.3,134.9,-3697.2,-2689.6,-873.1,8210.6,-3683.7
2876.2,1749.9,131.8,-3713.7,-2690.3,-877.6,8209.8,-3685.7
2874.9,1744.8,130.9,-3711.9,-2701.2,-889.6,8198.2,-3696.4
2868.1,1735.8,130.1,-3704.9,-2707.1,-892.8,8194,-3700.9
2860.4,1734.9,127.3,-3704.8,-2707.8,-890.7,8193,-3700
2857.8,1739.2,130.6,-3703.9,-2704.5,-890.2,8195.7,-3698.4
2861.7,1741.5,134,-3701.3,-2701.8,-886.1,8199.9,-3694.6
2875.5,1749.1,134.7,-3698.4,-2704.7,-885.6,8197.6,-3692.4
2879.4,1750.7,135.7,-3698.1,-2700.9,-884.1,8202.1,-3690.6
2876.5,1746.2,134.7,-3690.5,-2703.4,-885.8,8198.7,-3694.5
2873.2,1741.5,134.8,-3690.3,-2709.8,-895.8,8189.4,-3704.2
2871.8,1740.5,136.5,-3696,-2715.7,-898.8,8184.8,-3708.1
2869.5,1737.3,132.7,-3699.6,-2715.9,-894.5,8185.2,-3708
2863.5,1735.1,130.7,-3700.1,-2717.2,-893.6,8183,-3710.6
2864.5,1735.9,130.5,-3701.7,-2715.2,-897.1,8183.4,-3713.5
2866.3,1738.1,131.1,-3700.7,-2715.3,-892,8185.9,-3708.1
2866.7,1744.6,133,-3700.9,-2713.1,-887.5,8188.8,-3701.6
2867.3,1745.5,133.8,-3702.9,-2710,-886.9,8192,-3697.9
2870,1743.1,130.9,-3700.8,-2709.3,-890.9,8192.8,-3698.5
2869.3,1738.6,121.2,-3699.7,-2708.6,-891.6,8194.3,-3699.6
2869.7,1736.3,119.8,-3708.7,-2711,-891.4,8192.4,-3701
2864.5,1735.4,122,-3712.1,-2714.1,-891.1,8189.2,-3702.2
2863.6,1735.9,127,-3699,-2714,-885.7,8189.4,-3699
2869.4,1735.1,134.8,-3687.3,-2712.1,-875.2,8193.3,-3692.5
2878,1742.8,142.7,-3685.4,-2704.7,-875.5,8198.7,-3687.9
2876.9,1749.6,145,-3686.2,-2699.2,-879.7,8204.2,-3687.6
2874.8,1749.4,144,-3685.2,-2699.2,-882.8,8205.3,-3687.6
2874.9,1747,140,-3685.8,-2698.8,-884.4,8204.4,-3686.7
2874.5,1741.7,135.4,-3691.9,-2701.1,-886.2,8201.2,-3689.8
2873.5,1738.9,131.6,-3700,-2705.4,-888.4,8197.1,-3694.9
2875.1,1746.1,131.5,-3698.9,-2704.2,-881.8,8199.3,-3691.5
2880,1756.2,134.6,-3693.7,-2702.8,-882.2,8199.6,-3689.4
2881.4,1757.1,137.2,-3694.1,-2702.8,-885.5,8200.1,-3688.4
2883.8,1758.6,139.7,-3695.5,-2701.4,-888.4,8201,-3687.5
2879.7,1758.6,136.7,-3692.6,-2702.4,-897.4,8198.9,-3693.3
2870.8,1746.9,131.4,-3694.8,-2708.9,-899.6,8195.3,-3698
2864.5,1739.7,130.9,-3693.1,-2711.2,-896.6,8193.5,-3699.1
2854.8,1732.8,130,-3690.2,-2714.2,-896.6,8189.1,-3703.6
2864.8,1732.7,131,-3689.7,-2713.1,-895.1,8189.4,-3703.7
2873.1,1739.1,133.5,-3694,-2713.5,-894.7,8189.8,-3702.2
2868.3,1740.8,135.1,-3695.8,-2710.8,-894,8194.2,-3697.4
2874.5,1742.7,134.7,-3696.1,-2708.6,-895.4,8195.6,-3694.5
2880.1,1743.9,128.3,-3698.4,-2709.1,-901.9,8194.5,-3696.5
2874.5,1740.6,122.4,-3695.6,-2711.6,-901.3,8194.1,-3697.3
2866.4,1736,122,-3697.6,-2713.3,-897.1,8192.7,-3698.5
2861.4,1732.9,122.1,-3700.9,-2717,-895.9,8188,-3703.5
2853.4,1729.3,118.7,-3706.6,-2722.2,-900.6,8182.3,-3710.7
2848.6,1730.4,118,-3707,-2723.9,-897.5,8182.5,-3706.7
2853,1731.9,119.9,-3706.8,-2721.2,-895.6,8183.4,-3702.6
2856.7,1730.9,118.7,-3702.4,-2713.8,-894.5,8188.6,-3697.3
2864.9,1733.5,118.8,-3701,-2709.6,-894.7,8193.6,-3692.5
2866,1735.8,119.5,-3698.6,-2709.1,-892.8,8195.3,-3692.2
2859.9,1735,121.3,-3701.2,-2710,-892.1,8193.9,-3694.7
2861.8,1732.1,122.1,-3702.6,-2711.9,-893,8189.9,-3697.7
2859.1,1729.6,118.9,-3703.5,-2713.2,-889.8,8187.6,-3696.3
2855.1,1728.9,121.7,-3700.4,-2708,-879.3,8193.2,-3689.1
2862.6,1731.9,125,-3700.5,-2704.4,-878.6,8195.1,-3688
2870,1736.4,127.7,-3698.5,-2701,-881.2,8198.9,-3688.6
2867.2,1742.6,128.7,-3694.8,-2694.3,-880.1,8206,-3684.2
2866.6,1747,130.4,-3692.5,-2692,-878.6,8208.4,-3682.3
2873,1747.2,133.4,-3692.7,-2697.5,-879.1,8204.1,-3683.9
2869.5,1745.4,130.8,-3702.5,-2697.9,-877.1,8204.4,-3683.9
2870.3,1747.1,129,-3705,-2699.8,-867.8,8204.6,-3679.9
2875.2,1751,130.6,-3706.7,-2703.3,-870,8199.3,-3683.3
2871,1751.4,129.8,-3708.1,-2703.4,-874.8,8198.6,-3686.6
2867.8,1750.5,129.9,-3703.5,-2697.2,-879.3,8202.6,-3686.2
2870.7,1747.6,131.6,-3701.2,-2700.3,-889.5,8198,-3692.9
2876.5,1747,135.6,-3704.6,-2702.8,-894.6,8197.4,-3695.2
2875.6,1744.8,137.5,-3697.5,-2699.2,-893.1,8201.3,-3693.5
2866.6,1738.9,133.7,-3690.2,-2703.4,-891.4,8198.4,-3694.3
2866.1,1740.4,131.7,-3686.1,-2703.7,-886.7,8197.9,-3691.6
2867.1,1737.9,126.6,-3689.8,-2704,-885.3,8196.1,-3694.5
2866.6,1732.6,125.9,-3692.7,-2704.4,-886.5,8195.9,-3697.5
2867.7,1736.7,128.8,-3693.9,-2708.7,-891.1,8191.7,-3699.1
2871.7,1743.6,130.4,-3705.2,-2711,-900.9,8189.2,-3699.9
2870.7,1742.6,130.2,-3708.4,-2710.7,-902.4,8191.7,-3697.1
2869.1,1743.8,131.8,-3700.2,-2707.4,-899,8194.7,-3693.8
2863.9,1741.6,126.9,-3700.7,-2711,-898,8191.6,-3699
2860.1,1737.5,122.7,-3704.6,-2717.2,-902.4,8185.8,-3708.1
2857,1731.2,119.6,-3702.5,-2720.4,-898.7,8183.7,-3707.3
2847.5,1730.2,113.7,-3703,-2720.5,-895.8,8181.7,-3707.8
2850.1,1730.2,115.3,-3704,-2719.2,-895.3,8182.4,-3707
2853.6,1732.6,120.9,-3702.9,-2716.1,-895.5,8185.1,-3704.6
2859.3,1735.3,125.2,-3710,-2715.8,-891.8,8186.4,-3704.3
2866.8,1739.3,129,-3712.4,-2713.1,-886.9,8189.9,-3701.2
2867.5,1738.6,128.8,-3705.1,-2714.6,-884.4,8189.3,-3699.1
2867,1735.3,124.8,-3701.5,-2714,-879.7,8189.4,-3697
2868.7,1734.3,128.4,-3695.2,-2711.5,-870.8,8191.7,-3694.1
2868.9,1737.3,131.9,-3691.3,-2713.8,-872.6,8187.5,-3698.1
2873,1738.8,132.7,-3692.3,-2715.4,-879.6,8185.9,-3701.8
2873.9,1739.3,132.4,-3691.5,-2714.4,-883.7,8188.2,-3700.4
2870,1742.7,135.6,-3690.8,-2710.2,-884.6,8192.9,-3696.7
2868.8,1744.8,133.4,-3688.3,-2706,-884.1,8197.1,-3695.4
2868.3,1748.7,132.8,-3690,-2704.6,-882,8199.3,-3693.9
2871.8,1755,138.6,-3706.6,-2702.9,-871.4,8202.8,-3686.8
2875.7,1753.5,138.3,-3701.3,-2704.1,-872,8198.8,-3688.6
2873.7,1742.4,136,-3691.7,-2704.5,-876.5,8197.3,-3690.8
2868.3,1734.6,134.9,-3692.2,-2707.2,-879.8,8193.6,-3694.3
2868.7,1732.3,130.6,-3696.6,-2712.3,-889.4,8186.8,-3703
2864.4,1737.1,129,-3696.8,-2709.6,-892.2,8191.3,-3702.3
2863,1739,128.8,-3695.9,-2707,-887.4,8195.2,-3699.3
2867.8,1745.6,132.9,-3688.5,-2705.8,-885,8195.8,-3697.2
2870.8,1750,133.9,-3681.3,-2703.4,-880.7,8198.9,-3693.2
2871.2,1748,130.8,-3684.8,-2701.8,-877.7,8200.3,-3689.9
2870.2,1743.7,131.3,-3692.1,-2700.7,-877.9,8200.8,-3689.1
2868.9,1742.8,129.7,-3699,-2702.1,-881.1,8197.9,-3692
2867.4,1741.4,126.8,-3705.7,-2706.7,-889.7,8192,-3700.5
2861.7,1740.4,126.1,-3700.9,-2709.6,-892.6,8189.7,-3703.1
2866.1,1742.7,129.8,-3692.6,-2709.6,-891.1,8190.1,-3701.1
2869.1,1739.2,124.6,-3691.1,-2706.7,-890.2,8191.3,-3701.9
2870.3,1739,125.4,-3692.9,-2705.2,-892.6,8192.8,-3702.9
2870,1741.5,130.5,-3690.6,-2711.5,-890.5,8191.5,-3700.6
2872.4,1740.3,133.5,-3690.6,-2717.6,-891.9,8186.3,-3703.2
2872.7,1737,130.8,-3694,-2715.4,-891.9,8187.2,-3702.8
2868.3,1736.7,128.1,-3698.8,-2715,-894.9,8187,-3702.9
2860.2,1735.6,124.9,-3708.1,-2712.6,-893.5,8188.7,-3702.1
2863.3,1738.7,127.3,-3704.1,-2711,-891.9,8189,-3701.2
2864.8,1740.5,128.8,-3695.7,-2711.6,-890.6,8187.8,-3701.9
2866.8,1745.1,133.1,-3693.5,-2709.5,-885.3,8190.1,-3697.4
2868.3,1746.7,139.5,-3690.5,-2702.3,-874.3,8198.7,-3688.8
2871.4,1748.3,138.6,-3686,-2701.6,-875.2,8198.5,-3690.2
2873,1748.1,134.4,-3688.5,-2703.2,-879.1,8197.2,-3692.6
2868.9,1749,130.4,-3687.7,-2705.4,-882.3,8196.5,-3694.9
2862,1748.3,122.8,-3686.2,-2707.8,-882.8,8193.7,-3697.1
2857.4,1748.4,122.1,-3681.8,-2707.9,-884,8193,-3696.1
2848,1747.2,123.1,-3682.3,-2704.3,-883.2,8197.5,-3692.7
2845.9,1748.3,126.3,-3683.4,-2699.4,-874.7,8202.8,-3685.8
2871.5,1745.3,135.2,-3682.2,-2699.7,-875.6,8201.5,-3684.8
2888.9,1743.5,145.6,-3682,-2705.5,-881,8196.2,-3690.7
2892.2,1745,147.4,-3682.2,-2709.6,-884.5,8192.1,-3696.7
2888.3,1740.6,141.2,-3687.4,-2713.5,-893.8,8186.9,-3705.9
2880.1,1731.4,135.2,-3694.4,-2714.8,-895.4,8187.3,-3706.9
2877.1,1725.2,134.3,-3699.1,-2718.4,-894.5,8185.5,-3706.5
2882.4,1727.7,139.2,-3697.3,-2718.5,-895.1,8185.8,-3705.4
2882.1,1732.3,139.8,-3694.3,-2714.1,-889.6,8190.4,-3699.8
2886.7,1737.2,135.8,-3693.1,-2708.7,-886.2,8194.4,-3696.3
2892.5,1742.3,135.8,-3687.6,-2704.5,-885.9,8198,-3694.4
2886,1738.7,136.8,-3690.2,-2704.6,-887.4,8197.8,-3695.2
2880.4,1732.8,136.4,-3696.9,-2709,-896.1,8192.1,-3702.6
2875.8,1725.7,134,-3699.4,-2715.9,-897.3,8188.4,-3705.2
2871.7,1721.6,128.1,-3703.5,-2717.7,-892.1,8187,-3704.8
2876,1722,122.3,-3706.8,-2720.1,-892.3,8182.6,-3709.8
2879.9,1722.5,121.2,-3710.8,-2720.3,-898,8181.4,-3714.7
2877.2,1721.2,122.4,-3707.8,-2716.9,-894.8,8185.8,-3709.8
2876.4,1726.4,126.3,-3700.4,-2713.5,-891.8,8188.5,-3706.4
2877.9,1729.8,133.5,-3702.8,-2710,-891.6,8191.5,-3702.9
2877.2,1720.4,129.2,-3705.1,-2709.1,-891,8193.1,-3699.9
2878.2,1715,125.9,-3701,-2712.7,-889.4,8190.2,-3700.6
2875.7,1712.2,126.1,-3704.6,-2718.4,-889.4,8185.9,-3703.3
2870,1711.4,124.7,-3705.9,-2722.6,-889.4,8182.2,-3704.7
2869.8,1714.1,125.6,-3696.8,-2718.8,-885,8184.4,-3702.4
2874.2,1718.1,131.3,-3686.1,-2711.4,-875.9,8192.4,-3695.8
2881.4,1723.9,138,-3681.1,-2708.4,-878.3,8194.8,-3694.8
2883.5,1731.4,141.8,-3679.5,-2706,-882.1,8198.7,-3692.4
2889.3,1734.6,139.6,-3685.7,-2703.9,-883,8201.5,-3691.5
2885.5,1735.4,136.1,-3696.8,-2704.3,-882.2,8200.1,-3692.4
2879.6,1737.2,138.5,-3696,-2707.3,-883.7,8197.3,-3693
2877.5,1727,133.9,-3696.6,-2710.3,-881.3,8194.2,-3695.9
2881.1,1724.5,135,-3696.6,-2708.1,-869.5,8196.5,-3691.5
2885.2,1727.9,138,-3688.4,-2702.4,-866.8,8200.4,-3687.2
2888,1729.6,134.8,-3683.1,-2698.1,-870.8,8203.9,-3687.2
2897.5,1732.5,137.9,-3684.8,-2697.5,-877.5,8204.4,-3689.5
2898.7,1734,139.1,-3683.4,-2702.6,-888.9,8198.5,-3697.8
2887.7,1733.1,134.8,-3687.2,-2707.8,-892.9,8195.4,-3700.8
2879.3,1734.9,134,-3689.9,-2709.8,-892.6,8194.1,-3699
2873.1,1728.7,126.2,-3686.4,-2711.6,-890.4,8191.8,-3699.3
2875.5,1724.7,128.4,-3684.8,-2712.4,-886.7,8190.3,-3698.3
2878.1,1729.5,139.4,-3684.1,-2712.7,-886.9,8190,-3695.6
2879.6,1729.3,145.6,-3684.6,-2710.9,-887.4,8192,-3694.3
2884.7,1726.1,147.6,-3686.2,-2708.1,-887.7,8193.8,-3693.7
2890.2,1732.4,148.3,-3688.1,-2707.9,-894.5,8193.7,-3695.4
2884,1732.4,144.9,-3695.5,-2708.3,-895.3,8195.2,-3696
2878,1729.3,141.6,-3697.6,-2709,-891.6,8193.6,-3696.3
2877,1721.1,137.9,-3698.4,-2711.7,-890,8189.8,-3701.3
2874.8,1711.5,132.3,-3702.1,-2715.7,-895.5,8183.5,-3710.8
2874.1,1715.5,129.5,-3697.7,-2720.7,-894.8,8180.2,-3709
2874.9,1720.6,131,-3700.7,-2716.7,-893.1,8184.6,-3702.6
2876.2,1722.7,132.4,-3704.1,-2713,-893,8190.2,-3697.2
2882.5,1726.4,136.4,-3700.5,-2710,-895.5,8194.5,-3694.9
2884.3,1730.4,138.6,-3695.5,-2710,-894,8194.6,-3695.4
2881.3,1730.9,135.7,-3696.4,-2711.8,-892.7,8192.5,-3697.1
2873.3,1727.8,129.8,-3701.4,-2711.3,-891.3,8191.8,-3696.3
2864.4,1722.5,125,-3696.1,-2709.9,-885.3,8192.3,-3694
2862.8,1721,125.9,-3689.8,-2703.6,-874.9,8198.2,-3686.7
2865.4,1725.1,128.5,-3688.7,-2699.8,-874.4,8199.5,-3685.5
2873.4,1727.6,132,-3687.7,-2698.8,-876,8201.9,-3683.8
2882.6,1729.8,134.9,-3690.4,-2695.7,-875.2,8206.9,-3679.8
2893.1,1733.6,144.1,-3695,-2696,-874.6,8208.1,-3679.7
2901.3,1735.2,153.1,-3694.4,-2699.2,-878.1,8203.9,-3685
2901.2,1730.2,149.4,-3692.2,-2700.5,-875.5,8202.5,-3686.9
2898.6,1728.2,144.1,-3696.9,-2696.9,-862.5,8206.1,-3680.4
2897.3,1731.3,144.6,-3700.4,-2696.8,-861.9,8203.9,-3681.5
2897.7,1726.6,146,-3693.4,-2698.3,-865.8,8201.7,-3684.9
2905.1,1721.2,150.8,-3690.4,-2696.6,-868.1,8203.5,-3684.1
2911.6,1717.7,153.4,-3693.3,-2696.1,-876.3,8202.2,-3689.9
2913.3,1715.3,155.5,-3693.4,-2695.4,-877.1,8205.2,-3688.6
2916.6,1717.8,158.7,-3689.8,-2695.2,-875.2,8206.5,-3684.9
2916.8,1717.5,157.6,-3691.5,-2698.5,-873.9,8204.1,-3686.5
2919.6,1721.4,159.1,-3691.8,-2696.8,-870.8,8205.1,-3684.4
2923.7,1715.5,156.9,-3695,-2699.9,-870.5,8202.3,-3687.9
2919.8,1713.3,155,-3692.6,-2703.2,-874.1,8199,-3689.8
2920.4,1712.2,155.7,-3694.9,-2702.6,-877.6,8198.9,-3688.7
2924.5,1712.7,157.6,-3697.8,-2704.1,-886,8196.2,-3692.8
2925.2,1710.6,162.2,-3701,-2704.6,-886.8,8198,-3690.9
2926,1713.5,164.1,-3696.2,-2701.3,-882.3,8202,-3686.4
2925,1708.8,157.6,-3692.9,-2700.4,-880,8202.4,-3689.3
2924.1,1701.5,151.9,-3699.5,-2706.7,-884.1,8196.3,-3695.8
2921.3,1698.6,152,-3702.3,-2710.1,-882,8194,-3693.9
2917.8,1698.6,150.3,-3701.2,-2713.1,-881,8189.9,-3696
2916.4,1695.7,145.3,-3702.2,-2710.6,-880.2,8191.5,-3693.7
2921.2,1695.9,151.6,-3701.6,-2710.2,-882.5,8193.3,-3692
2923.2,1696.5,158.4,-3699.7,-2710.9,-882.3,8193.7,-3692.2
2924.9,1699.7,163,-3698.3,-2705.6,-879.4,8198,-3689.9
2923.9,1703.9,165.4,-3698.7,-2703.4,-878.5,8199.8,-3687.8
2920.4,1702.7,166.2,-3702.1,-2703.9,-873.7,8200.2,-3685
2918.6,1702.1,163.9,-3700.3,-2700,-863.9,8204.2,-3680.1
2919.6,1702.2,159.7,-3698.9,-2699.1,-867.1,8202.9,-3683.1
2921.2,1700.5,157.9,-3698.6,-2699,-873.3,8202.5,-3685
2921.3,1702.3,160.7,-3696.3,-2700,-875.8,8202.6,-3683.3
2923.9,1712.3,162.5,-3702.8,-2700.1,-876.2,8202.1,-3680.9
2929.7,1714,162.6,-3707.9,-2696,-876.5,8205.7,-3679.2
2931.7,1710.2,164.9,-3701.6,-2694,-874.3,8209.7,-3677.3
2932.2,1704.9,168.4,-3696.8,-2691.6,-862.6,8213.3,-3672.7
2934,1704.3,170.6,-3695.6,-2690,-863,8212.4,-3675.2
2931.6,1705.2,169.2,-3695.3,-2692.5,-868.2,8210.9,-3678.8
2928.9,1703.7,160.7,-3692.1,-2698.3,-875.2,8204.9,-3684
2932.3,1699.7,151,-3693.5,-2706.4,-886.5,8196.4,-3691.8
2924.7,1698.3,151.5,-3696.7,-2704.9,-888.6,8199.2,-3689.7
2913.4,1697.2,156.5,-3696.2,-2702.6,-883.9,8201.7,-3687.9
2919.3,1699.7,161.9,-3697.2,-2701.3,-880.5,8204.4,-3685.1
2925.8,1706,168.7,-3693,-2699.8,-876,8208.9,-3680
2927.1,1703.5,169.1,-3693.7,-2701.4,-875.4,8206.5,-3683.6
2923.1,1702.3,166.6,-3695,-2701.8,-876.7,8204.3,-3685.7
2922,1701.6,166.8,-3699,-2704.4,-878.9,8201.2,-3687.5
2921,1695.5,158.3,-3708.7,-2707.2,-886.1,8197.3,-3693.1
2917.9,1695.9,153.7,-3713.1,-2709,-887.6,8196.1,-3693.1
2919.3,1697.6,156.5,-3708.5,-2706,-884.4,8197.7,-3691.3
2916.6,1693.7,155.1,-3703,-2703.7,-882,8199.1,-3692.2
2915.9,1694.9,154.7,-3702.4,-2702.5,-886.4,8198.7,-3695.6
2918.1,1696.6,156.8,-3705.7,-2703,-883.6,8200.1,-3691.4
2919.2,1690.7,155.1,-3708.8,-2703.1,-880.5,8199.7,-3690.8
2920.1,1691.1,154.1,-3706.1,-2706.8,-881.7,8195.5,-3692.8
2920.5,1690.9,154.7,-3706,-2708.9,-883.8,8192.9,-3694
2916.8,1688.5,151.8,-3703.1,-2709.9,-881.4,8191.4,-3694.4
2913.9,1689.3,153.3,-3697.2,-2703.4,-878.4,8195,-3692.6
2915.5,1693.3,154.3,-3700.8,-2701.4,-876,8196.2,-3691.2
2920.4,1697.9,153.4,-3693.5,-2700.9,-869.9,8198.4,-3684.4
2925,1701.2,154.2,-3686.5,-2693.1,-858.4,8207.9,-3674.7
2936.7,1705.9,160.1,-3691,-2691.9,-861.3,8207.1,-3675.7
2941.3,1707,160.1,-3693.3,-2694.1,-868.6,8204.5,-3678.9
2938.6,1703.4,157.7,-3687.1,-2695.6,-870.9,8204.2,-3679.1
2931.6,1697.6,157.1,-3689.1,-2694.7,-869.7,8205,-3679.3
2931.6,1698,161.6,-3691.8,-2693.6,-870.6,8206.4,-3680.2
2927.5,1700.5,165.4,-3690.9,-2696.9,-870.3,8204.8,-3679.4
2924.1,1706.1,168.4,-3684.8,-2695.4,-859.5,8208.3,-3670.2
2935.7,1712.7,174.1,-3679,-2690.8,-858.6,8210.2,-3667.6
2939.5,1715.4,178.1,-3675,-2685.6,-862.9,8213.2,-3668.3
2934.5,1711.7,173,-3681.9,-2687.2,-866.7,8210.9,-3672.2
2938.2,1709.7,168.1,-3691.6,-2695.8,-877.6,8201.9,-3681.4
2934.5,1703.6,164.6,-3696.3,-2700.6,-880,8199.9,-3684.6
2924.5,1698.9,160.4,-3695.7,-2701.8,-876.4,8198.8,-3685.5
2927.7,1700.7,160.8,-3692.1,-2700.1,-874.3,8201.2,-3683.3
2934.1,1703.4,166.1,-3689,-2697.1,-872.1,8205.1,-3680.2
2939.2,1708.8,169.9,-3687.4,-2695.8,-872.9,8205.5,-3678.3
2938.6,1712.8,170.6,-3685.9,-2692.3,-873.7,8208.6,-3676.8
2937,1711.6,169,-3688.7,-2695.9,-876.8,8205.4,-3680.4
2929.7,1706.9,165.1,-3698.9,-2697.7,-886.3,8202.2,-3686.5
2918,1699.6,157,-3703.8,-2698.8,-887.7,8202.7,-3686.7
2916.4,1693.5,150.3,-3704.3,-2702.6,-884,8199.2,-3688.1
2916.8,1691.2,144,-3706.4,-2705.1,-882.4,8195.3,-3692
2917.1,1694.6,141.3,-3707.9,-2707.1,-885.5,8192.7,-3697.1
2921,1698.4,148.8,-3710.2,-2709.8,-881.4,8193.1,-3691.8
2922.7,1695,153,-3708.3,-2707.4,-878.5,8196,-3688.4
2925,1693.7,157.1,-3703.6,-2702,-877.3,8198.9,-3685.2
2922.4,1694.6,158.6,-3703.5,-2702.3,-879.3,8197.7,-3685.1
2916.1,1695.5,157.1,-3706.9,-2703.7,-879.8,8196.1,-3687
2915.4,1691.7,153.1,-3708.5,-2705.9,-879.9,8193.5,-3687.1
2914.4,1686.4,150.3,-3711.2,-2707.5,-879.1,8190.5,-3689.2
2915.5,1692.3,149.4,-3708.3,-2703.3,-874.2,8193.8,-3686
2922,1691.8,151.9,-3698.9,-2698.5,-864.5,8199.5,-3680.3
2920.9,1698.3,157.8,-3695.5,-2692.3,-864.4,8204,-3677
2921.7,1703.3,161.8,-3697,-2689.5,-866.5,8208.8,-3674.5
2925.6,1701.7,159.8,-3693.6,-2686.8,-866.7,8211.6,-3673.1
2923.9,1701.2,157.3,-3692.6,-2690.4,-868.2,8207.3,-3675.1
2917.1,1695.6,153.2,-3693,-2692.6,-872.3,8204.9,-3676.7
2898.4,1680.4,143.8,-3699.2,-2690.1,-868.4,8210.1,-3672.7
2890.3,1680.4,142.9,-3702.5,-2688.8,-857.1,8213.5,-3664.4
2910.2,1678.5,152,-3701.5,-2687.7,-855,8212.9,-3662.9
2933.4,1688.7,161.6,-3701,-2695.2,-861,8204.3,-3669.5
2946.8,1706.3,167,-3695.2,-2698.4,-868.2,8199.3,-3676.9
2949.5,1708.3,165.1,-3693,-2699.5,-877.9,8197.1,-3683.4
2940.8,1701.6,161.2,-3695.3,-2702.8,-880.2,8196.2,-3685.2
2934.1,1696.5,160.8,-3695.8,-2701.1,-875.7,8197.4,-3681.7
2935.6,1687.2,162.8,-3697.4,-2703.1,-875.4,8195.1,-3682.9
2941.6,1682.5,162.6,-3696.6,-2702.4,-871.7,8195.9,-3681.9
2947.5,1682.6,163.6,-3698.6,-2700.8,-868.5,8196.5,-3682.1
2955.1,1685.7,169.8,-3699.2,-2698.6,-869.5,8198.6,-3681.6
2960,1685.6,171.9,-3701.2,-2694.5,-871.6,8201.6,-3680
2966,1685.2,174.4,-3701.4,-2695.2,-879,8200.5,-3681.4
2962.5,1679.9,173.2,-3701.5,-2696.8,-878.6,8200.8,-3681.7
2962.9,1679.4,172.3,-3702.7,-2700.6,-876.7,8195,-3686.3
2965.6,1678.8,169.9,-3705.9,-2702.2,-877.3,8190.4,-3692
2964.1,1669.2,164,-3712.8,-2708.4,-882,8185.9,-3698.8
2964.1,1659.6,162.9,-3715.1,-2708.9,-879.1,8187.2,-3695.6
2973.5,1655.7,169.6,-3714.9,-2706.6,-877.3,8190.1,-3692.8
2980.7,1659.2,175.6,-3721,-2703.8,-877.2,8193.6,-3687.8
2982,1664.7,184.5,-3720.7,-2701.5,-879,8196.6,-3685.2
2979.9,1659.9,188,-3715.7,-2699.2,-877.1,8198.6,-3685.3
2979.9,1652.2,188.5,-3717.2,-2697.7,-875.7,8198.9,-3685.1
2982.5,1647.9,187.1,-3724.2,-2699.6,-874.5,8197.2,-3685
2979.7,1644.4,183.2,-3724.1,-2703.4,-870.7,8194.3,-3685.3
2979.8,1646.7,183.6,-3712.7,-2700.4,-864,8197,-3682.7
2983.9,1650.5,182.7,-3709.3,-2695.6,-865,8199.1,-3682.4
2990.6,1652.7,183.6,-3707.8,-2692.2,-867.7,8203.3,-3679.6
2991.9,1657.4,183.5,-3705.8,-2689.2,-869.4,8207.3,-3675.8
2991.9,1661,183.9,-3711.2,-2684.1,-868.4,8211.2,-3672.3
2989.5,1664.4,184.5,-3712.8,-2681.1,-868.5,8213.6,-3671.7
2979.8,1659,182.4,-3714.9,-2687,-867.4,8209.7,-3674.5
2982.2,1653.4,186.4,-3712,-2689.4,-857.7,8209.3,-3671.2
2980.1,1651.8,185.7,-3702.9,-2692.7,-859.5,8204.7,-3675
2982.3,1652,182.4,-3700,-2691.8,-863.9,8204.7,-3677.3
2988.4,1656.6,181.1,-3699.4,-2692.7,-866,8203.7,-3678.4
2984.4,1659.6,179.6,-3705.4,-2693.7,-872.6,8200.6,-3683
2982.6,1660.9,179.9,-3706.2,-2690.7,-872.7,8205.7,-3680
2985.7,1659.2,177.7,-3701.8,-2689.7,-870.3,8208.2,-3676.3
2987.2,1653.9,175.1,-3702.1,-2690.4,-869.5,8209.3,-3675.2
2983.4,1655.5,177,-3702.7,-2692.1,-866.5,8209.3,-3673.9
2978.5,1657.1,175.5,-3711.4,-2692.6,-865.1,8208.5,-3674
2973.7,1656.7,179.7,-3710.6,-2693.9,-867.4,8206.6,-3675.6
2971.5,1650.7,185.3,-3712.2,-2695.5,-870.3,8204,-3678.8
2977.8,1648.2,189.3,-3714.5,-2694.5,-877.9,8203.2,-3682.3
2976.5,1646.7,188,-3711.3,-2695.3,-879.5,8204.3,-3681.5
2982.5,1652.2,190,-3704.2,-2696.1,-876.5,8204.5,-3679.1
2983.3,1651.8,185.7,-3708.1,-2698.1,-876.2,8202.4,-3681.6
2981.2,1649.6,179.2,-3721.4,-2700.4,-881.5,8198.7,-3686.9
2975.4,1646.2,175.7,-3727.8,-2701.8,-879.9,8199.1,-3683.8
2971.7,1640.3,171.7,-3727,-2703.7,-877.1,8197.6,-3686.3
2966.9,1637,167,-3726.9,-2703.5,-874.8,8197.6,-3686.9
2965.9,1638.3,170.1,-3719.9,-2700.4,-875,8201.3,-3683.9
2965.4,1630.8,171.1,-3717,-2700,-871.3,8202.5,-3684.6
2971.4,1633.9,178.1,-3710.6,-2696.8,-867.3,8205.2,-3682.1
2969.9,1636.1,176.2,-3711.9,-2694.3,-862.1,8207.2,-3679.7
2967,1640.1,173,-3713.8,-2690.4,-856.1,8210.2,-3675.2
2964.3,1642.8,170,-3707.6,-2686.5,-848,8215.2,-3669.1
2959.5,1642.3,160.5,-3707.1,-2683.8,-847.5,8217.1,-3667.9
2955.1,1637.6,153.8,-3709.7,-2682.6,-851.1,8218.2,-3668.3
2952.9,1636,160.3,-3709,-2680.6,-852.5,8221.2,-3666.5
2964.5,1639.4,168.6,-3708.9,-2684,-855.9,8218.3,-3670.3
2985,1647.7,181.4,-3716.7,-2687.1,-860.8,8214.1,-3675.5
2996.8,1647.8,188.7,-3715.9,-2686.3,-860.5,8215,-3675.6
2995.7,1649.3,191.1,-3709.2,-2684.4,-850.8,8218,-3669.6
2986.1,1649.8,190.9,-3705.7,-2680.9,-851.1,8219.3,-3668
2983.6,1644.4,185.6,-3708.7,-2678.3,-855,8221.1,-3667.9
2990.7,1638.5,180.8,-3716,-2681.1,-856.7,8216.5,-3671.8
2993.5,1636.7,180,-3722.4,-2688.7,-865,8207.7,-3682.2
2991.1,1632.9,182,-3723.8,-2689.7,-867,8208.9,-3683.6
2990,1629.1,183.6,-3722.6,-2685.1,-864.5,8213.4,-3681
2991,1632.4,187.4,-3720.8,-2682.5,-861.9,8216.9,-3677
2997.1,1637.6,193.7,-3715.4,-2679.6,-857,8220.3,-3671.8
3000.8,1640.5,193.2,-3710,-2681,-856.5,8217.9,-3672.8
3001.2,1636,191.8,-3708.7,-2683.7,-857.3,8214.3,-3674.4
2998.1,1633.8,188.6,-3709.2,-2686,-859,8211.6,-3675.9
2992.7,1635.9,180.6,-3711.5,-2692.2,-868.6,8205.8,-3682.1
2986.4,1635.1,177.9,-3709.5,-2694.3,-870.6,8205.9,-3682.3
2985.6,1637.8,179.6,-3706.1,-2692.4,-865.9,8208.5,-3678.8
2988.9,1640.3,180.6,-3705.8,-2692.6,-865.5,8208.2,-3680.6
2998,1639.7,181.4,-3710.1,-2692.2,-871.7,8207.2,-3686.2
2998.4,1639.6,180.1,-3707.7,-2691,-870.1,8210,-3683
2993.2,1637.3,179.8,-3713.2,-2692.1,-867.4,8209.3,-3682.1
2993.5,1635.8,183,-3731.5,-2689.9,-866.3,8211.3,-3679.1
2995.2,1630.8,186,-3736.7,-2693,-870,8209.1,-3679.1
2989.1,1624.2,183.6,-3725.9,-2695.7,-870.5,8205.9,-3683.4
2980.4,1624.7,182.9,-3715.5,-2692,-865.6,8209,-3679.6
2978.1,1627.2,183.3,-3709.7,-2691,-861.7,8209.9,-3678.3
2984.8,1632,183.3,-3700.5,-2688.2,-855.1,8211.7,-3673.7
2990.6,1634.1,185.6,-3691.8,-2682.4,-846.1,8219.5,-3664.7
2995.1,1635.9,189.5,-3690,-2679.5,-847.9,8221.9,-3664.2
2995.2,1637.1,191.4,-3696.5,-2680.3,-854.2,8221.1,-3666.7
2996,1640.1,193.1,-3703.1,-2683,-856.2,8219.5,-3666.9
2997.8,1636.8,189.7,-3708.8,-2686.9,-857.5,8216,-3670.5
3000.4,1638.3,190,-3714.8,-2686.6,-859.1,8215.4,-3671.3
3000.6,1637.4,188.5,-3723.1,-2682.5,-856.7,8220.9,-3668.2
2998.9,1634.4,185.4,-3712.6,-2678.9,-846.5,8224.6,-3663.7
3002.8,1641.9,186.7,-3697,-2676.5,-847,8225.3,-3661.7
3004.3,1646.8,187.3,-3695.4,-2674.7,-850.9,8227,-3661.9
3000.7,1641.8,190,-3696.7,-2677,-854.8,8224,-3665.8
2992.9,1636.8,189.4,-3698.4,-2684.7,-865.7,8214.8,-3677.3
2986.1,1634.9,185.9,-3709.3,-2690.4,-869.2,8211.6,-3680.9
2981,1634.4,183.6,-3722.7,-2689,-867,8212.4,-3678.2
2985.6,1628.5,185.5,-3716,-2690.4,-864.7,8212.1,-3676.8
2994.8,1630.9,191.4,-3707.8,-2691,-860.8,8212.7,-3674.6
3000.7,1634.6,196.6,-3704.6,-2687.3,-859.1,8214.8,-3672.1
2998.3,1639,197.8,-3703.2,-2684.5,-860,8217.9,-3668.5
2998,1636.6,193.2,-3705,-2685.6,-862.3,8217.6,-3668.7
2994.4,1631.3,186,-3707.3,-2689.6,-869.7,8212.5,-3675.7
2986.8,1627.8,181.7,-3707.5,-2694,-871.7,8209.6,-3679.5
2982.8,1623,176,-3713.1,-2696.5,-869.3,8206.2,-3680.9
2977.7,1622.3,171.9,-3721.6,-2694.8,-868.4,8206.3,-3681.1
2978.8,1622.8,172.2,-3726.1,-2696.4,-874,8204,-3686.1
2981.3,1619.7,174,-3721.4,-2695.1,-869.5,8205.3,-3682.2
2984.8,1619,178.3,-3717.9,-2689.9,-863.4,8209.8,-3676.4
2983.5,1621.9,181.2,-3717.6,-2686.3,-858.8,8213,-3672.9
2981.4,1624.6,183.7,-3717.9,-2688.4,-860.2,8211,-3673.8
2982.9,1624.4,182.4,-3722.9,-2688.2,-859.6,8209.8,-3675.4
2985.6,1621.9,179.2,-3731.4,-2688.7,-857.6,8208.1,-3677.9
2981.8,1621.5,175.7,-3735.1,-2690.5,-855.6,8207,-3679.5
2980.1,1621,174.4,-3728.2,-2691.5,-850.2,8207.6,-3677.2
2980.8,1621,177.1,-3712.2,-2686,-839.6,8214.5,-3669.4
2987.3,1631.4,182,-3709.3,-2681.9,-840.4,8216.9,-3666
3000.9,1638.1,187.5,-3715.4,-2679.8,-843.5,8219.7,-3665.1
3000.6,1637.4,188.2,-3714.3,-2677.4,-843.9,8223.1,-3664.6
2989.7,1634.4,185.1,-3707.9,-2679,-845.2,8221.2,-3666.5
2990,1632.6,180.7,-3706.3,-2683.3,-847.5,8217,-3669.9
2990.8,1627.7,178.3,-3710.3,-2690.2,-846.9,8212.2,-3672.6
2987.4,1624.6,179.2,-3710.2,-2688,-835.9,8214.8,-3668.2
2993.3,1624.8,185.6,-3704.5,-2684.2,-834.4,8216.9,-3667.4
2994.8,1629.8,189.2,-3702.7,-2681.8,-838.3,8218,-3668.7
2995,1636,192.5,-3699.1,-2677.9,-843.7,8221.7,-3668.2
2996,1636.8,190.4,-3702.7,-2682.3,-854.4,8218.3,-3671.9
2994.3,1636,186.8,-3706.6,-2687.4,-858,8216.3,-3674.9
2991.5,1633.3,183.8,-3711,-2691,-856,8213.3,-3678.5
2985.2,1630.4,179.6,-3710.5,-2695.5,-854.2,8209.8,-3680.9
2983.2,1628.2,178.1,-3702.2,-2696.3,-853.7,8208.5,-3679.6
2982.7,1626.7,176.2,-3704.6,-2692.2,-853.4,8210.5,-3677.4
2985.4,1631.7,177.7,-3706.3,-2689.6,-855.5,8213.3,-3675.6
2989.8,1634.2,182.6,-3710.4,-2690.3,-858.1,8212.2,-3675.8
2993.7,1637.9,184.8,-3712.4,-2691.4,-864.2,8210.3,-3678.5
2992.6,1636.6,181.7,-3719.4,-2693.6,-864.9,8210.3,-3679.7
2990.6,1631.9,176.4,-3726.2,-2695.2,-863.2,8208.4,-3679.9
2983,1622.7,171.4,-3725.1,-2696.3,-864.3,8205.1,-3684.6
2976.4,1613.6,167.7,-3724,-2702.5,-869.6,8197.5,-3694.1
2971,1613.6,168,-3726.4,-2705,-866.2,8196.2,-3691.4
2975.5,1617.9,169.3,-3733.3,-2701.3,-862.7,8198.8,-3687.6
2984.4,1622.1,169,-3727.6,-2700.8,-863.2,8199,-3686.4
2986.3,1624.1,173.8,-3717,-2697.3,-865.3,8202.8,-3682.8
2982.9,1621.5,175.4,-3707.6,-2695.1,-862.9,8205.8,-3681.4
2983.2,1621.4,177.2,-3705.3,-2698.3,-863.1,8203.3,-3682.7
2978.3,1620.2,177.5,-3704.5,-2702.1,-862.1,8199.9,-3682.7
2976.6,1617.8,173.4,-3703.7,-2702.8,-858,8198.8,-3682
2976.8,1617.9,169.8,-3699,-2700.3,-849,8201,-3678.8
2978.6,1624.3,173,-3696.2,-2696.2,-849.2,8202.4,-3676.5
2981.2,1628.4,175.1,-3698.9,-2689.6,-852.1,8208.8,-3673.2
2986.3,1635.2,176.9,-3704,-2687,-851.6,8214.2,-3669.6
2986.4,1635.5,180.2,-3703.7,-2682.5,-848.2,8218.8,-3667
2985,1630.8,181.8,-3699.7,-2683.2,-847.5,8218.1,-3667
2989,1628.3,179.7,-3711,-2684.5,-845.8,8218.3,-3667.5
2989.9,1628.9,175.5,-3719.3,-2685.8,-836.2,8218,-3666.1
2989.6,1628.8,177.2,-3707.2,-2688.9,-838,8212.6,-3668.8
2983.5,1627.9,173.6,-3701.2,-2690.4,-842.7,8210.6,-3672.4
2986.6,1629.8,178.6,-3698,-2688.5,-847.9,8211,-3674.1
2989.5,1628.1,180.6,-3702,-2692.5,-858.9,8206.2,-3681.7
2989.8,1632.5,180.7,-3701.1,-2691.3,-862.3,8209,-3681
2989.1,1633.4,179.4,-3697.9,-2688.4,-860.4,8212.4,-3678.7
2986.5,1628.5,179.4,-3700.2,-2685.2,-857,8215.1,-3677.2
2983.7,1626.4,182.2,-3705,-2682.6,-850.8,8217.6,-3672.7
2984,1622.3,179.6,-3707.2,-2685.3,-848.5,8214.9,-3675.1
2985.8,1622,175,-3704.6,-2691.6,-848.5,8210,-3678.2
2981.5,1623.8,172.5,-3701.4,-2691.4,-849.1,8209.5,-3678.3
2978.5,1626.6,171.3,-3700.5,-2689.4,-857.5,8209.2,-3680.8
2982.1,1624.2,171.7,-3704.8,-2687.2,-859.2,8211,-3679.4
2986.1,1627.7,174.9,-3707.3,-2685.5,-856.2,8213.9,-3675.1
2989.1,1627.3,175.7,-3709.6,-2688.8,-856.8,8211.4,-3678.7
2989.6,1620.7,172.4,-3716.7,-2693.2,-863.4,8205.2,-3687.6
2980.9,1617,166,-3718.1,-2694,-860.1,8205,-3684.8
2976.1,1618.8,162.4,-3718.4,-2698.7,-858.8,8200.8,-3686
2972.9,1614.8,161.3,-3718.9,-2698.4,-858.1,8200.6,-3685
2975.8,1612.4,164.6,-3712.6,-2695,-857.8,8203.8,-3683.3
2979.6,1613.8,170.3,-3711.6,-2696,-857.6,8203.4,-3684.1
2984.1,1620.9,176.1,-3711.6,-2693.3,-856.6,8205.6,-3682
2986.8,1626.4,176.9,-3725.6,-2687.8,-852.3,8211,-3676.6
2983.5,1627.1,175.7,-3725.4,-2687.9,-847,8211.4,-3674.4
2976,1622.1,171.3,-3706.3,-2685.8,-838.9,8213.4,-3672
2975.4,1621.7,168.2,-3694.4,-2688.1,-840,8210.1,-3675
2974.2,1621.6,167.6,-3692.3,-2689.4,-844.1,8209.2,-3678
2973,1621.9,176.9,-3693,-2689.4,-847.8,8210.4,-3678.1
2975.6,1624.9,182.9,-3695.8,-2688.1,-849,8212.2,-3675.6
2986.6,1632.4,180.5,-3699,-2684.7,-848.1,8215.5,-3671.5
2989.6,1633.7,179.5,-3700.1,-2683.6,-845,8218.1,-3669.5
2991.5,1632.6,181.1,-3697,-2677.6,-834.3,8223.4,-3664.3
2990.9,1635.6,179.8,-3691,-2678,-834.6,8221.2,-3665.2
2993.5,1635.7,179.8,-3688.9,-2681.4,-838.7,8218.8,-3668.7
2992.3,1631.5,176.9,-3688.5,-2685.7,-843.6,8213.7,-3674.2
2989.2,1627.1,178,-3701.6,-2689.8,-854.6,8208.2,-3681.9
2990.4,1629.4,182.4,-3714.6,-2690.4,-856.8,8210.1,-3682.5
2990.9,1632.3,181.1,-3712.2,-2688.9,-853.5,8211.8,-3680.8
2993.4,1633.9,183.4,-3701,-2685.1,-851.1,8215.4,-3678.2
2995.9,1637.5,185.3,-3690.7,-2679,-846.8,8221.5,-3672.1
3000.9,1639.3,183.3,-3692.9,-2682,-845.3,8219.1,-3670.5
3002.1,1639.4,182.8,-3705.6,-2684.2,-845.9,8216.7,-3671.3
2995.7,1634.2,181.8,-3708.5,-2683.7,-847.7,8216,-3672.3
2990.4,1628.8,180.6,-3707.4,-2690.8,-859.1,8207.8,-3681.2
2987.8,1626.1,178.7,-3704.6,-2691.6,-863.8,8208,-3684.2
2988.7,1625.1,174.2,-3698.9,-2689.1,-860.4,8210.5,-3682.7
2990.2,1628.6,172.9,-3694.7,-2689.6,-859.2,8209.4,-3684.2
2982.1,1630.1,177.4,-3695,-2690.3,-863.3,8209.1,-3687.4
2979.9,1629.7,180.4,-3694,-2687.9,-858.7,8213.2,-3681.8
2983.1,1625.8,176.6,-3699.2,-2687.8,-857.1,8212.8,-3681.6
2985.3,1626.5,173.6,-3705.1,-2687.3,-857.7,8212.2,-3682.7
2982,1629.9,170.9,-3710.3,-2689.9,-861.6,8209.3,-3685.4
2980.4,1628.2,170.5,-3710.7,-2695.3,-862.2,8205.4,-3688.3
2982.9,1625,170.7,-3710.9,-2695.4,-860.2,8204.4,-3687.9
2981.5,1626.9,171.8,-3710.2,-2692.5,-857.2,8207,-3685.8
2979.6,1628.6,173.9,-3711.7,-2687.1,-851.1,8212.4,-3681.2
2983.7,1629.2,179.8,-3710.4,-2679.4,-840.3,8220.3,-3674.5
2987.8,1628.2,184.1,-3707.7,-2678.5,-841.3,8219,-3675.3
2987.8,1627.6,186.6,-3705.3,-2681.7,-846.7,8216,-3678.7
2996.3,1627.1,187.9,-3704.4,-2686.9,-849.8,8212.4,-3683.1
3002.7,1627.9,183.4,-3705.4,-2692.1,-852.4,8206.9,-3689.1
3000.9,1630.3,178.3,-3705,-2690.6,-853.4,8205.6,-3690.2
3001.5,1628.4,180.6,-3703.9,-2687.8,-849.6,8209.1,-3686
3001.6,1629.6,184.7,-3699.6,-2683.3,-838,8214.7,-3677.2
3000.7,1631.9,191.3,-3693.5,-2677.3,-836.8,8218.4,-3675
3003.3,1637.4,197.3,-3701.6,-2670.5,-839.6,8224.4,-3672.2
3003.5,1631.9,189.7,-3707.4,-2674.8,-844.5,8221,-3676.9
3006.8,1623.7,184.2,-3709.8,-2679.9,-854,8214.2,-3685.4
3003,1615.7,179.6,-3717.9,-2683.4,-856.7,8212,-3689
3000.5,1611.6,175.9,-3726.4,-2682.8,-854,8211.6,-3688.7
2999,1616.2,178.6,-3724,-2682.1,-852.4,8212.6,-3686.5
2998.7,1620.2,182.6,-3711.2,-2683.1,-852.2,8213.7,-3684.1
2998.3,1625.2,183.4,-3705.1,-2680.2,-852.9,8215.8,-3681.7
3000.4,1624.9,185.5,-3702.4,-2677.1,-853.1,8218.6,-3679.7
3002.7,1621.6,182.7,-3702.7,-2677.5,-853.3,8218.8,-3678.7
2998.2,1615.3,174.2,-3709.3,-2682.4,-859.1,8214.4,-3685
2994,1617.8,173,-3716.4,-2687.7,-861.5,8211.6,-3688.4
2990.7,1617.7,173.6,-3727.8,-2690.5,-860,8208,-3689.9
2987,1614.8,174.1,-3735.5,-2690.1,-859,8205.9,-3693.8
2987.6,1608.8,176.6,-3729.8,-2692.1,-860.9,8204.4,-3699
2994.9,1603,180.5,-3720.6,-2692.7,-854.1,8206.1,-3694.6
2994.1,1606,181.9,-3711.7,-2688.3,-847.9,8210.6,-3689.7
2998,1612.9,182.9,-3702.9,-2685.3,-846.3,8212.3,-3687.2
3002.5,1612.5,184.6,-3700.1,-2686.9,-849.3,8211.6,-3687.9
2996.7,1610.6,183.7,-3700.9,-2685.7,-849.6,8212.2,-3687.4
2994,1608,175.9,-3702.5,-2685.1,-848,8211.9,-3687.2
2993.6,1609.4,172.5,-3705.8,-2686.6,-846.2,8210.3,-3685.5
2992.4,1612.8,175,-3706.8,-2688.7,-843.4,8209.6,-3682.9
2995.2,1619.1,182.2,-3702.5,-2680.1,-833.5,8218.8,-3674.8
3001.3,1623.5,186,-3707.9,-2670.9,-830.3,8225.8,-3670.1
3005,1625.9,185.9,-3698.9,-2667.9,-829.7,8230.5,-3668
3007.8,1628.8,186.7,-3691.9,-2670.3,-830.9,8229.2,-3669.6
3007,1628.1,185.4,-3696.3,-2671,-832.4,8226.3,-3671.3
3006.4,1625.2,183,-3699.5,-2673.3,-834.5,8224.4,-3673.6
2999.1,1620.4,182.2,-3704.7,-2677.1,-834.7,8221,-3677.8
2996.2,1619.3,185.7,-3708.6,-2675.4,-826.1,8222.4,-3673.5
3006,1624.3,192.5,-3701.1,-2675.8,-828.2,8220.7,-3672.3
3011.8,1627.4,196.4,-3696.3,-2673.9,-833.8,8222.7,-3672.1
3017.3,1627.3,200.1,-3693.4,-2671.7,-837.2,8225.4,-3673.3
3020.5,1622.8,201,-3699.7,-2673.6,-845.4,8222.5,-3680.1
3010.1,1621.5,193.8,-3704.4,-2676.4,-846.3,8222.7,-3681.5
3003.5,1619,185.7,-3704.9,-2676.7,-842.8,8221.1,-3682
2997.4,1620.5,185.6,-3703.6,-2678,-841.3,8220.2,-3681.4
2996.2,1619.6,185.3,-3705.4,-2680.4,-840.2,8218.6,-3680.8
3004.4,1618.7,187.3,-3710.8,-2679.9,-838.6,8219.1,-3677.7
3006.1,1622.4,190.9,-3714.1,-2677.7,-836,8221.5,-3675
3011.4,1621.4,190.2,-3715.6,-2678.1,-836.6,8221.7,-3677.3
3015,1622.4,190.9,-3717,-2672.7,-842.3,8224.9,-3679.9
3009.2,1622.6,189.1,-3712.5,-2675.5,-845,8223.5,-3683.2
3001.3,1618.2,183.1,-3709.2,-2678.5,-845.3,8220.1,-3684.9
2995.6,1614.4,179.5,-3710.5,-2680.7,-846.1,8217.6,-3686.8
2989.9,1611.4,173.8,-3712.7,-2690.4,-853.1,8208.6,-3694.4
2989.9,1604.9,172.8,-3719.3,-2691.3,-850.5,8209.1,-3692.1
2991.6,1605.3,174.9,-3730.9,-2685.5,-846.3,8214.2,-3687.5
2992.3,1607.4,173.7,-3727.6,-2683.3,-843.8,8216.1,-3684.1
2996.1,1611.7,177.6,-3713,-2682.5,-845.6,8217.1,-3681.1
3004.4,1612.6,180.8,-3708.9,-2682.8,-846.4,8217.4,-3682.7
3004.7,1613.5,178.4,-3708.7,-2684.2,-846.8,8215.3,-3683.6
2997.6,1613,179.5,-3712.8,-2686.2,-845.6,8212.4,-3684.3
2990.5,1607.7,180.1,-3708.3,-2689.2,-841.9,8209.6,-3684.9
2990.1,1605,183.6,-3699.6,-2687.4,-833.2,8211.1,-3680.8
2993.8,1605.5,185.2,-3700.2,-2683.7,-833.7,8212.8,-3680.2
2997.6,1611.9,183.6,-3700.4,-2677.2,-835.4,8219.1,-3677.1
3002.5,1615.6,184.7,-3700.2,-2672,-835.9,8224.5,-3674.9
3009.4,1621.7,189.4,-3700.1,-2668.6,-836.9,8226.3,-3674.6
3004.9,1623.2,193.9,-3700,-2672.1,-840,8224.1,-3677
2998.7,1623.2,193.4,-3702,-2676.6,-839.2,8221.7,-3678.9
2999.1,1621.5,189,-3705.3,-2674,-828.4,8223.9,-3675.7
3002,1622.7,188.9,-3701.6,-2674.9,-830.4,8219.9,-3678.8
3001.1,1621.3,189.3,-3702.5,-2678.6,-836.9,8215.3,-3683.4
3003.2,1624,190.9,-3703,-2677.1,-840.4,8215.9,-3684.6
3003.6,1622.9,184.2,-3706.1,-2678.9,-849.4,8213.8,-3690.8
3008.5,1622.4,182.2,-3710.3,-2677.4,-851.3,8216.7,-3689.3
3008.8,1622.2,185.6,-3721.7,-2672.5,-846.6,8221.4,-3684.9
3007.6,1618.2,191.6,-3718.5,-2674.8,-843.4,8220.5,-3684.5
3004.2,1611.9,192.3,-3703.1,-2678.1,-839.1,8218.1,-3685
3002.4,1608.5,185.2,-3699.2,-2677.2,-837.7,8217,-3686
3001.1,1609.1,179.6,-3701,-2681.7,-841.5,8212.7,-3690.6
3005.3,1613.4,183.4,-3707.2,-2684.1,-847.1,8210.2,-3693
3006.5,1613.6,185.4,-3713.8,-2684.9,-856.9,8208.9,-3697.2
3000.4,1608.8,186.4,-3712.6,-2684.2,-858.7,8210.9,-3697.2
2995.8,1611.5,188.5,-3709.8,-2683.3,-855.4,8213.2,-3693.5
2995.8,1612.1,186.3,-3705.7,-2684.5,-852.3,8211.7,-3696.3
2993.8,1608.6,178.2,-3705.9,-2691.1,-856.7,8204.6,-3706.5
2994.4,1608.2,172,-3704.5,-2696.4,-855.4,8202.2,-3703.3
2986.7,1608.5,166.4,-3710,-2698.2,-855,8200.5,-3702.9
2984.3,1608.8,168.6,-3714,-2697.2,-856.3,8201.5,-3701.4
2990.1,1605.8,168.9,-3714.3,-2695.5,-858.2,8203.7,-3698.7
2994.6,1603.8,169.4,-3709.7,-2696.6,-857.8,8203.6,-3698.9
2999.5,1607.6,178,-3704.2,-2697.3,-857.5,8204.2,-3698.5
3005.6,1607.1,185.9,-3705.7,-2697.1,-854.9,8205.8,-3696.4
3002.9,1604.8,186.2,-3705.3,-2696.4,-848.2,8207.1,-3692.5
2997.9,1605.4,186.3,-3703.5,-2693,-837.2,8210.8,-3688.9
2995.9,1611.6,184.8,-3702.7,-2690.1,-835.7,8211,-3690.6
2998.1,1611.2,182.8,-3703.2,-2694.6,-840.2,8207.1,-3692.6
3000.7,1610,181,-3698.7,-2693.9,-844.2,8208.8,-3691.9
3003.7,1614.5,182.6,-3700.1,-2693.6,-847.1,8208.9,-3693.4
3006.6,1619.1,187.7,-3707.5,-2689.6,-847.8,8212.2,-3690.7
3008.3,1619.6,192.5,-3709,-2686.8,-844,8216.8,-3688.4
3010.9,1622.8,197.5,-3701.6,-2685,-834.5,8219.4,-3684.1
3009.6,1620.3,193.9,-3693.5,-2688.2,-835.7,8214.2,-3688
3012.1,1619.4,193.8,-3692.7,-2686.8,-839.5,8214.1,-3688.5
3008.9,1616.2,189.2,-3696.3,-2692.2,-843.6,8210.4,-3693.3
3005.2,1616,184.3,-3704.6,-2700.9,-854,8201,-3702.4
2993.7,1617.4,186.2,-3710.6,-2697.8,-856.4,8204.4,-3701.7
2989.2,1619.4,189.2,-3707.2,-2692.7,-852.7,8209.7,-3698.7
2996.5,1616.7,191.6,-3704.5,-2689.9,-848.9,8211.1,-3696.1
3008.7,1619,194.3,-3700.2,-2686.4,-845.2,8214.7,-3691.9
3016.9,1619.2,190.3,-3700.2,-2686.3,-844.7,8215.1,-3690.5
3014.2,1609.3,183.5,-3705.3,-2687.2,-844.7,8215.2,-3691.5
3008,1599.4,182.7,-3713.4,-2685.4,-845.4,8216.2,-3690.6
3001,1588.1,177.5,-3719.5,-2689.7,-851.8,8211.1,-3697.2
2990.8,1595.4,172.2,-3715.7,-2695.3,-853.1,8206.1,-3702.7
2991.8,1610.7,175.3,-3706.5,-2698.2,-850,8202.6,-3705.1
2999.1,1618.9,182.3,-3704.1,-2702.7,-852.1,8196.5,-3710.8
2997.7,1625.5,186.2,-3709.1,-2703.6,-859.2,8194.7,-3714.7
2989.8,1630.5,186.7,-3708.5,-2698.6,-855.2,8201.2,-3707.3
2986.3,1627.1,182.7,-3708.7,-2699.8,-853.1,8200.9,-3705.2
2985.4,1625.9,180,-3707.8,-2701.1,-853.8,8198.4,-3705.1
2984.8,1625.5,177.7,-3705.4,-2705.3,-855.8,8195.1,-3706.1
2979.3,1629.4,174,-3707.2,-2707.1,-854.3,8193.5,-3707.2
2980,1631.7,177.3,-3715.5,-2704.2,-852.5,8195.3,-3706
2978.6,1628.6,178.6,-3714.8,-2699.5,-847.6,8199.8,-3702.9
2976.3,1631.6,178.2,-3707,-2696.9,-840.6,8202.5,-3699.1
2979.5,1642.5,183,-3695.4,-2693.1,-831.1,8208.1,-3691.7
2983.3,1650.3,185.1,-3691.3,-2693.2,-831.7,8207.3,-3691.4
2980.3,1650.7,184.8,-3690,-2694,-837.3,8206.4,-3693.9
2969.4,1652.3,186.4,-3687.7,-2692.6,-838.2,8208.3,-3693.2
2965.5,1647.3,182,-3691.8,-2694.1,-838.4,8205.4,-3696.5
2973.3,1648.3,176.6,-3695.2,-2695.9,-839.5,8203.5,-3697.6
2978.3,1654.9,174.7,-3694.9,-2696.8,-838.7,8205.8,-3695
2980.6,1658.2,173.7,-3693.5,-2692.6,-828.5,8210.8,-3688.2
2986.7,1660.5,182.3,-3689.7,-2684.4,-828.2,8215,-3684.1
2987.1,1662.2,188.4,-3691,-2681.9,-832.2,8216.6,-3684.6
2982.9,1657.4,189.7,-3693.1,-2684.4,-836.7,8214.4,-3687
2976.3,1652.8,189.9,-3699.9,-2689.5,-847.4,8208.2,-3694.1
2968.4,1645.8,185.3,-3705.4,-2693.2,-851.7,8206.4,-3697.8
2970,1643.2,179.7,-3708.7,-2698.1,-852.1,8201.8,-3699.9
2976.3,1646,182.1,-3708.4,-2700.1,-852.7,8199.9,-3699
2980.4,1652.1,184.1,-3704.3,-2694.8,-849.6,8205.5,-3692.8
2982.8,1654.5,179.2,-3715.3,-2690.2,-847.1,8210.5,-3688.9
2987,1659.4,184.3,-3714,-2688.5,-846.7,8212.5,-3686.5
2981.4,1656.9,187.6,-3703.4,-2690.2,-847.6,8209.4,-3688.4
2977.3,1649.7,185.6,-3704.3,-2693.7,-856.2,8204.9,-3695.8
2972,1644.6,180.8,-3711.1,-2695.5,-857.9,8204,-3697.8
2963.7,1641.9,176.8,-3709.6,-2699.1,-857.2,8200.3,-3699.4
2961.7,1637.3,176.2,-3705.6,-2700.7,-858.8,8196.7,-3703
2960.3,1636,175.4,-3709.2,-2703.8,-865.8,8193,-3706.6
2964.7,1638.1,176.4,-3707.2,-2705.5,-864.1,8193.5,-3703.5
2972.3,1639.2,176.5,-3701.7,-2702.5,-860.9,8197.1,-3701.5
2973.8,1643.4,180.5,-3699,-2699.2,-859.3,8199.6,-3699.6
2965.3,1644.5,182.4,-3699.9,-2696.8,-860.1,8201.9,-3698.3
2966.1,1639.5,179.9,-3704.2,-2701.3,-859.8,8197.6,-3700.1
2969.1,1635.7,181.2,-3714.7,-2705.7,-859.7,8194,-3701.2
2967.2,1634.6,180.9,-3721.6,-2707.6,-858.1,8192.3,-3701.1
2966.3,1638.2,177.6,-3717.5,-2708.2,-851.7,8193.4,-3696.8
2970.9,1641.1,180.6,-3704.3,-2702.1,-839.9,8200.6,-3689.1
2971.5,1646.5,180,-3695.4,-2696.2,-839.2,8203,-3688.2
2974.4,1651.3,182.8,-3690.5,-2689.4,-841.2,8209.6,-3684.8
2977.8,1652.7,185.2,-3687.4,-2689,-842.6,8211.5,-3685.1
2975.8,1649.2,185.3,-3688.9,-2690.2,-841.3,8210.7,-3687.1
2972.4,1646,184.2,-3695.4,-2691,-839.8,8209.4,-3689.3
2970.9,1644.3,182.9,-3706.4,-2694.1,-838.5,8206.4,-3692.5
2970.1,1645,178.7,-3705.3,-2693.6,-830.2,8206.6,-3689.9
2975.4,1643.8,177.9,-3697.3,-2686.9,-828.8,8210.5,-3685.9
2975.1,1641.8,181.3,-3696.3,-2683.3,-831.4,8214.6,-3684.3
2976.8,1647.7,187.8,-3696,-2679.2,-832.4,8217.9,-3682.4
2976.2,1651.6,191.9,-3702.7,-2684.1,-841.2,8212.6,-3689.2
2973.5,1647.3,189.4,-3706.2,-2686.5,-842.1,8212,-3691.4
2970.4,1645.5,183,-3708.3,-2686.6,-839.6,8211.9,-3689.1
2967.6,1639,179.4,-3709,-2690.8,-838.9,8210.2,-3688.8
2969.1,1634.5,175.9,-3702,-2691.2,-836.1,8209.2,-3688.7
2965.3,1635.6,178,-3698.2,-2688.6,-833.9,8209.7,-3688.3
2971,1642,182.8,-3695.2,-2689.7,-833.4,8209.5,-3687.9
2981.1,1646.6,184.6,-3695.6,-2692.3,-836.3,8207.3,-3689.5
2983.1,1649.7,185.3,-3696.1,-2693.4,-845.9,8205.9,-3692.4
2977.6,1648.5,183.8,-3697.1,-2693.5,-847.8,8207.5,-3691.5
2973.8,1647.3,182.7,-3701.3,-2694.1,-844.9,8207.3,-3690.9
2974.5,1646,179.8,-3708,-2698.2,-844.7,8203.1,-3694.7
2972.5,1639.8,175.2,-3715.9,-2705.5,-851.8,8194.7,-3703.9
2965.3,1635.8,175.3,-3719.1,-2705.7,-850,8194.4,-3700.2
2966.1,1640,177.3,-3716.9,-2705.4,-848.4,8194.1,-3697.9
2966.7,1643.1,177.1,-3706.3,-2703.7,-848.1,8196.6,-3695.6
2969,1647.3,177.9,-3694.7,-2702.7,-851.5,8199.1,-3694.5
2971.5,1647.8,180,-3693,-2701.4,-853.3,8199.9,-3694.7
2973.6,1647.8,183.6,-3703.5,-2700.2,-853.5,8201.2,-3693.1
2971,1643,182.6,-3712,-2700.2,-851.1,8201,-3692.3
2964.9,1637.9,177.5,-3710.7,-2699.8,-845,8198.1,-3693
2964,1637.4,174.3,-3703.9,-2698.4,-836.6,8200,-3688.4
2972.4,1642.2,175.1,-3699.9,-2701.2,-839.3,8199.5,-3687.8
2979.5,1649.6,182.3,-3702,-2701.9,-842.8,8200.8,-3687.8
2982.9,1656.6,186,-3702.1,-2697.2,-844.2,8206.3,-3686.7
2982.7,1659.4,189,-3695.1,-2694.5,-844.9,8208.8,-3686.6
2979.5,1661.2,192.5,-3691.4,-2694.7,-846.3,8209.2,-3687
2976.6,1657.6,189.2,-3694.9,-2698.1,-845.3,8207.8,-3688.7
2978,1654.7,186.3,-3696.6,-2697.3,-836.3,8208.6,-3686.1
2984.1,1652.3,183.4,-3695.8,-2696.4,-838,8206,-3687.2
2982.7,1654.8,184.1,-3695.9,-2700.1,-844.5,8203,-3689.3
2977.1,1659.3,187,-3695.3,-2698,-848.2,8204.5,-3691.5
2981.6,1655.5,184.2,-3701.2,-2701.2,-856.1,8201.6,-3696.5
2983.4,1653.3,184.6,-3705.6,-2699.6,-856.1,8206.1,-3693.7
2981.5,1659,186.5,-3708.3,-2696.5,-852.7,8210,-3689.5
2982.9,1656.3,187.6,-3711.2,-2694.8,-849.4,8211.4,-3688.4
2979,1650.7,186.1,-3700.5,-2698.9,-847.4,8207,-3691.3
2972.8,1652,182.3,-3693.3,-2700.1,-847.1,8203.9,-3692.5
2970.8,1647.6,179.9,-3693.6,-2702.2,-847.3,8202.4,-3693.3
2972.5,1645.4,179.6,-3698.6,-2701.6,-848.8,8201.7,-3693.8
2974.4,1647.8,181.1,-3708.8,-2699.5,-855.1,8202.4,-3694.9
2974.4,1649,182,-3704.6,-2704,-857.8,8199,-3697
2977.3,1650.9,183.6,-3701.3,-2699.4,-854.6,8202.8,-3693.8
2976.1,1652,182.1,-3700.7,-2701.9,-854,8201.1,-3695.4
2973.2,1646.3,178.6,-3701.4,-2711.4,-858,8193.2,-3703.3
2969.4,1638.4,177.1,-3703,-2710.8,-852.5,8194.5,-3699.9
2966.6,1635.7,177,-3708.2,-2710.4,-848.4,8194.2,-3700.1
2961.8,1638.9,171.2,-3712.8,-2708.2,-847,8196.3,-3698.3
2957.6,1647.3,173.1,-3705,-2707.7,-850.7,8197.2,-3695.9
2964.8,1650.3,177.4,-3702.2,-2707.4,-850.1,8197.7,-3697.2
2974.4,1651.1,182.2,-3706.1,-2706.1,-847.2,8199.1,-3694.3
2978.2,1651.3,185.3,-3702.8,-2701.9,-844.4,8203.6,-3690.5
2972,1650.8,184.6,-3695.7,-2701.8,-839.2,8204.3,-3688.8
2973.6,1652,186.9,-3689.7,-2701.1,-830.4,8206.5,-3685.1
2981.5,1652.4,189,-3691.1,-2701.2,-832.8,8204.7,-3686
2984.1,1652.2,187.1,-3691.2,-2703.4,-838.6,8202.3,-3689.8
2982,1654.8,189.5,-3690.9,-2701.1,-841.1,8204.4,-3689.4
2977.7,1659,193.5,-3690.5,-2698.3,-841.8,8207.4,-3686.1
2978,1660.8,193.6,-3695.1,-2694.6,-840.9,8209.7,-3683.4
2984.8,1666.1,195.7,-3698.8,-2692.6,-837.2,8213,-3678.8
2989.1,1662.9,195.2,-3696.7,-2688.2,-825.2,8219.6,-3671
2987.9,1656.3,192.4,-3693.6,-2686.6,-822.2,8220.1,-3670.6
2980.5,1651.2,191.3,-3696.1,-2685,-823.2,8221.4,-3671.9
2977.1,1643.7,189,-3694.2,-2687.1,-827,8218.8,-3676.5
2974.8,1641.7,184.4,-3696.3,-2696.5,-838.1,8208.4,-3686.8
2972.1,1651,184.3,-3690.6,-2703.4,-843.1,8204.1,-3689.9
2975.2,1666.2,186.9,-3683.1,-2708.6,-843.8,8200.2,-3691.6
2979.9,1669.7,188.3,-3673.4,-2709.6,-842.9,8199.2,-3691.5
2983.2,1668.4,194.3,-3665.3,-2702.2,-837.5,8207.5,-3684.1
2981.6,1665.7,194.6,-3667.6,-2697.5,-835.7,8211.2,-3681.1
2977,1665.6,189.1,-3672,-2699.4,-838.2,8209.6,-3682.1
2977.4,1669.3,186.6,-3675.1,-2703.6,-841.9,8205,-3685.6
2972.7,1668.7,184.4,-3681,-2708.9,-851.5,8198.3,-3694
2962.1,1665.9,184.1,-3688,-2708.5,-854,8198.8,-3694.8
2961.8,1665.3,185.9,-3695.4,-2706.5,-852.3,8201.9,-3691.3
2968,1663.7,186.1,-3703.4,-2708.3,-853.2,8201,-3692
2970,1664.9,182.4,-3705.8,-2707.7,-856.7,8201.3,-3696.9
2968.5,1671.1,182.5,-3693.2,-2707.9,-851.9,8202.1,-3693.2
2958.9,1672.5,182.2,-3681.4,-2712.3,-852.4,8197.6,-3694.9
2951.9,1671.7,177.7,-3675.4,-2709.9,-852.7,8198.4,-3692.6
2956.3,1666.2,171.6,-3679.6,-2713.7,-854.8,8196.8,-3693.5
2954,1665.1,166.6,-3685.7,-2715.1,-854.2,8196,-3694.9
2948.8,1665.3,165.3,-3688.2,-2710.9,-852,8199.4,-3693.9
2948.1,1666.1,166.9,-3685.2,-2707.2,-847.9,8202.3,-3690.9
2954.9,1669.4,168.9,-3681.6,-2707.3,-843.5,8202.4,-3687.2
2962.1,1672.6,177.9,-3680.9,-2700.4,-835.1,8211.4,-3678.2
2966.2,1678.3,184.9,-3682.7,-2697.8,-836.7,8213.5,-3676.7
2965.1,1679.3,186,-3683.3,-2700.6,-842.6,8210.9,-3681
2963.2,1677.4,185.8,-3683.3,-2699.9,-845.5,8212.2,-3681.4
2961.4,1676.7,182.4,-3686.5,-2704.4,-846.3,8208.2,-3683.5
2963.9,1679.4,184.6,-3702,-2704.9,-846.1,8206.8,-3684.1
2965.6,1679.8,186.1,-3711.1,-2699.4,-841.2,8210.2,-3681.7
2969,1675.4,189.2,-3705,-2697.3,-829.8,8213.5,-3676
2975.7,1678.3,194.3,-3682.3,-2697.8,-829.3,8213,-3673.4
2976.3,1680.4,196.2,-3671.4,-2696.3,-831.8,8215.1,-3672.4
2972.7,1676.5,194,-3674.3,-2697.6,-836.8,8212.8,-3676.8
2969.6,1677.5,189.5,-3683.7,-2702.4,-847.1,8206.1,-3684.6
2966.5,1676.1,184.2,-3693.9,-2707.7,-850.2,8204.4,-3685.4
2966.5,1668.6,179,-3699.5,-2711,-848.6,8202.3,-3686.1
2966,1671.4,177.1,-3696,-2708.9,-847.6,8204,-3684.7
2966.2,1674.7,180.5,-3692.1,-2704.9,-843.6,8208.1,-3682.4
2963,1675,183,-3691.3,-2699.6,-840.6,8212.1,-3679
2960.7,1676.4,184.9,-3686,-2694.7,-838.9,8216.8,-3674.2
2964.8,1677.8,181.1,-3680.8,-2696.9,-840.6,8215,-3675.6
2963.1,1674.3,180.1,-3684.6,-2703.4,-849.7,8207.6,-3682.9
2958.3,1670.3,183.4,-3690.2,-2707,-852.6,8205.1,-3687.5
2957.5,1664.3,182.3,-3693.7,-2710.7,-850.1,8201.2,-3689.5
2960.4,1661.8,180.1,-3699.8,-2712.4,-849.7,8198.7,-3692.1
2961.9,1665.1,177.7,-3708.1,-2712.9,-852.9,8196.8,-3696.9
2962.8,1665.4,178.3,-3708.8,-2709,-847.5,8202.1,-3690.2
2970.1,1669,181.9,-3704.4,-2706.5,-846.6,8205.1,-3684.9
2972.3,1671.3,184.1,-3699.6,-2704.4,-846.4,8207.8,-3680.7
2971.5,1672.2,183.3,-3696.8,-2701.9,-846.5,8211.2,-3678.7
2968,1670.5,178.8,-3697.2,-2703.8,-844,8208.9,-3682.2
2963.6,1669,178.7,-3706,-2703.7,-841,8208.4,-3682.9
2956.7,1668.5,177.4,-3707.4,-2705.9,-838.8,8206.7,-3682.2
2959.3,1665.4,176,-3701.2,-2707,-833.2,8206.1,-3680.2
2961,1668.1,179.7,-3692.4,-2699.3,-823.3,8215.1,-3671.5
2962.6,1675.5,185.4,-3688,-2692.8,-823.7,8219.6,-3668.9
2974.8,1685.2,193.3,-3691.2,-2691.6,-829.1,8222.1,-3668.7
2980.3,1687.4,195.5,-3692.8,-2691.2,-831.8,8223.4,-3670.3
2978.4,1680.4,190.4,-3692.6,-2692.6,-831,8222.4,-3672.3
2970.3,1676.1,184,-3693.7,-2691.8,-831.2,8223.3,-3672.7
2959.8,1671.6,178,-3695.9,-2693.4,-830.2,8222.3,-3674.5
2964.4,1669.3,178,-3692,-2696.4,-822.4,8219.7,-3673.7
2975.2,1677.4,184.3,-3686,-2695.9,-824.3,8218,-3672.1
2981.1,1680,189.2,-3688.8,-2694.4,-828.5,8220.5,-3670.7
2982.9,1681.4,192.5,-3688.7,-2693.9,-832.6,8220.8,-3670.7
2977.6,1680.8,190.6,-3687.8,-2694.9,-840.1,8217.9,-3677.9
2970.9,1678.6,187.7,-3687.9,-2695.3,-841,8218.9,-3678.9
2972.1,1678.2,180.7,-3692.3,-2700,-838.7,8214.8,-3681.4
2974.8,1676.4,180.9,-3696.5,-2702.3,-838,8212.5,-3682.9
2971.5,1670.5,183.4,-3696.7,-2703.2,-837.9,8211.9,-3682.3
2966.7,1676.1,183.3,-3694.2,-2703.7,-837.6,8210.8,-3682.1
2966.9,1680,183.6,-3695.8,-2700.5,-837,8213.3,-3680.3
2974.1,1683.8,187.9,-3707,-2700.2,-839.7,8213.7,-3680.9
2980.5,1687,192.7,-3703.2,-2702.2,-847.5,8211.2,-3686.4
2976.5,1679.7,187.8,-3693.9,-2704.7,-848.2,8211.8,-3688.6
2973.4,1674.7,181.4,-3695.5,-2704.7,-845.1,8211.8,-3686.9
2969.7,1669.9,178.1,-3703.2,-2705.6,-844.2,8209.6,-3690.7
2959.9,1665.1,173.2,-3706.4,-2710.3,-852.1,8203.5,-3700.5
2954.4,1664.4,170.2,-3704.5,-2710.5,-851.7,8204.2,-3697.3
2958.3,1665.8,170.6,-3704.2,-2709.7,-849.9,8204,-3694.3
2964.7,1665.7,176.2,-3699.9,-2708.8,-848.6,8205.4,-3691.6
2971.7,1670.5,184.5,-3694.8,-2709.1,-851.3,8205.6,-3690.7
2970.1,1674.1,191.5,-3690.4,-2708.5,-850.3,8206.9,-3689.4
2969.6,1673.4,189.8,-3689.2,-2706.3,-847.9,8207.5,-3687.7
2970,1669.2,182.6,-3691.3,-2705.8,-845,8206.2,-3688
2967.2,1668.1,179.9,-3690.8,-2709,-839.9,8204.1,-3686.2
2963,1669.9,181.2,-3689.4,-2706.3,-830.9,8208.8,-3680.4
2965.7,1673.4,179.3,-3692,-2703.2,-830.6,8210.3,-3678.1
2973.6,1680,180.6,-3692.1,-2700.6,-833.8,8213.7,-3678
2976.5,1681.2,184.5,-3691.5,-2697,-835.9,8218,-3676.6
2973.4,1684.6,188,-3686.8,-2693,-837,8220.9,-3674.2
2975.2,1685,189.8,-3684.8,-2694.8,-839.3,8219.2,-3674.8
2982.2,1680.8,188.5,-3688.9,-2699.7,-839.2,8216,-3677.5
2982.7,1683.4,183.1,-3692.7,-2699.6,-832.5,8217,-3673.9
2975.2,1687.2,175.8,-3687.9,-2700.1,-835.6,8214.7,-3675.8
2970.1,1681.9,173.5,-3689.2,-2699.3,-840.7,8215.2,-3679.3
2968,1677,179.9,-3693.9,-2697.4,-842.9,8215.5,-3681.8
2970.1,1677.6,183.3,-3702.5,-2698.7,-849.8,8213,-3685.8
2975.8,1676.9,187.8,-3702.2,-2701,-852,8213.2,-3685.2
2977.5,1679.7,192,-3700.5,-2701.8,-850.5,8213.3,-3683.9
2971.5,1679.7,188.7,-3697,-2701.2,-847,8213.8,-3682.6
2966.5,1678.1,187.1,-3689.9,-2703.7,-844,8212.5,-3680.3
2966,1677.7,184.4,-3691.4,-2705.9,-843.3,8210.4,-3681
2965.4,1674.8,179,-3695.8,-2707.5,-842.1,8209.1,-3682.9
2969.9,1670.7,174.6,-3701.6,-2708.4,-843,8206.5,-3685
2963.3,1673,177.7,-3705.7,-2705,-850.3,8208.1,-3687.2
2961.2,1675.2,183,-3710,-2705.7,-851.4,8208.5,-3686.3
2971.1,1676.5,185.6,-3707.4,-2704.5,-848.2,8209.4,-3683.7
2973,1676.7,186.8,-3708.7,-2705.2,-846.1,8208.6,-3684.8
2964.7,1668.3,180.8,-3712.9,-2706,-848.8,8205.7,-3690.6
2958.7,1662.2,174.5,-3710.3,-2702.7,-844.6,8208.8,-3686.7
2960.8,1659.5,170.3,-3710,-2705.4,-843,8205.8,-3686.2
2965,1662.8,170.1,-3708.8,-2708.3,-844,8201.9,-3686.9
2969.9,1664.5,172.9,-3707.1,-2707.3,-847,8203,-3686.1
2968.4,1664.9,173.8,-3706.5,-2703.5,-844.1,8207.6,-3684.1
2967.7,1665.2,175,-3705.8,-2699.7,-840.9,8211.2,-3681.7
2971.3,1667.4,177.1,-3704.9,-2695.9,-838.7,8214.1,-3678.6
2969.6,1668.1,174,-3701.6,-2696.2,-834.3,8214.5,-3676.1
2967.5,1670.7,175.8,-3694.8,-2696.4,-825.9,8215.8,-3670.5
2962.2,1672.3,178,-3695.2,-2694.1,-827.1,8215.1,-3671.4
2961.9,1671.1,181,-3701.5,-2695.9,-833.6,8212.2,-3677.2
2967.3,1668.3,184.5,-3704.2,-2695.5,-835.2,8213.1,-3677.4
2968.9,1666,186,-3704.5,-2693.8,-834,8215.1,-3675
2969.7,1664.7,183.5,-3701.6,-2691.8,-833.3,8216.4,-3673.7
2972,1672.6,180.2,-3697.5,-2689,-830.5,8220.3,-3670.7
2977.7,1683.2,183.9,-3703.3,-2689,-821.7,8221.3,-3665.3
2978,1688.2,187.6,-3700,-2691.1,-823.9,8217.3,-3667.5
2968.6,1684.1,187,-3694.6,-2689.9,-828.5,8217.1,-3668.4
2963,1681.1,181.9,-3692.7,-2694,-835.1,8213.1,-3672.2
2964.5,1682.5,173,-3692.6,-2703.8,-846.6,8201.3,-3680.5
2958.5,1683.3,168.6,-3694.2,-2705.4,-848.5,8201.1,-3680.4
2956.1,1681.7,169.3,-3695.2,-2701.7,-844.7,8205.5,-3677.8
2960.5,1684.3,175.6,-3691.5,-2698,-842.6,8209.2,-3673.3
2962.3,1689.6,179.1,-3684.9,-2695.3,-839.9,8212.9,-3668.1
2962,1695,179.7,-3687.5,-2694,-839.1,8214.4,-3665.7
2959.9,1698.1,180.1,-3704.6,-2695.6,-840.5,8213.3,-3668.2
2958.7,1699.1,179.3,-3706.6,-2699.7,-843,8209.2,-3671.8
2954.3,1692.8,173.5,-3704.5,-2706.9,-851.5,8200.9,-3680.8
2946.7,1689.9,166.9,-3703.7,-2707.8,-852.6,8200.4,-3682.8
2943,1692.1,165.2,-3699.3,-2706.7,-850.1,8202.4,-3679.5
2941.5,1689.1,165.5,-3696.8,-2703,-848.9,8205,-3679.1
2941.3,1687,165.1,-3696.4,-2702.8,-852.1,8205,-3682
2942.3,1690,167.7,-3690.4,-2704,-849.5,8204.3,-3679
2944.3,1691.5,168.7,-3693.1,-2705.9,-848.5,8201.8,-3679.4
2944.6,1694.1,169,-3698.8,-2706.6,-848.1,8199.8,-3679.1
2944.2,1690.9,171.2,-3699,-2708.4,-849,8198.9,-3679.8
2944.1,1683.5,168.6,-3698.3,-2711.1,-845.8,8196.8,-3681
2944.4,1684,169.3,-3704.8,-2710.3,-842.2,8197.7,-3679.3
2947,1694.1,171.1,-3706.1,-2706.9,-839.3,8200.9,-3676.9
2950.4,1700.7,171.4,-3707,-2702.2,-833,8205,-3672.5
2957.5,1705.2,174.6,-3700.9,-2692.8,-821.1,8214.4,-3663.7
2961.5,1706.6,173.2,-3691.4,-2687.8,-819.9,8215.7,-3663.3
2955.9,1706.6,173.8,-3682.6,-2689.9,-825.7,8213.5,-3667.6
2949.8,1709.6,175.9,-3676.3,-2690.4,-829.3,8213.9,-3667.9
2954,1703.6,174.4,-3678.2,-2694.3,-830.2,8210.2,-3671.8
2955.5,1702.9,172.5,-3679.1,-2694.7,-831,8209.5,-3674.2
2952.7,1700.8,174.7,-3681,-2690.9,-827.5,8214.9,-3672.2
2959.4,1701.7,183,-3683,-2690.9,-816.7,8218.5,-3664.3
2966.8,1709.6,189,-3680,-2686.5,-814.9,8221.7,-3659.8
2969.3,1715.5,191.2,-3679.3,-2684,-817.7,8224.5,-3659.5
2967.7,1714.9,188,-3683.2,-2682.5,-821.3,8224.3,-3662.6
2970,1708.3,186,-3693.3,-2684.2,-831.7,8219.1,-3670.5
2961.2,1700.2,182.6,-3695.2,-2687.3,-833.7,8217.2,-3672.7
2955.8,1700.9,178.3,-3694.7,-2694.6,-832.9,8211.3,-3675.2
2957.6,1703.7,181.5,-3690.3,-2695.6,-833.1,8209.8,-3675.3
2959.5,1705.7,185.9,-3683.1,-2690.5,-829.5,8215.1,-3671.1
2962.6,1708.9,188.6,-3679.5,-2687.5,-827.9,8217.3,-3669.3
2966.8,1712.9,190.2,-3677,-2680.4,-827.2,8223.8,-3665.1
2966.4,1713.3,189,-3681.2,-2680.5,-828.7,8223.8,-3665
2959.8,1714.9,187,-3685.3,-2687.3,-837.7,8216.3,-3671.6
2953.6,1714.1,184.6,-3692.7,-2687.1,-837.6,8217.2,-3672.1
2955.9,1707.7,180.9,-3699.9,-2686,-833.1,8217.2,-3671.2
2952.8,1698,174.9,-3703.6,-2687.7,-830.9,8215.2,-3672.2
2962.4,1696.1,175.7,-3707.4,-2693.6,-835.9,8209.3,-3677.4
2960.6,1699.3,181.1,-3702.2,-2693.8,-832.1,8212.2,-3672.9
2956.5,1704.5,186.6,-3693.6,-2691.6,-830.8,8215.6,-3670.6
2964.2,1709.5,189.4,-3694.9,-2687.3,-832.1,8219.7,-3667.7
2963,1708.5,187.5,-3689.7,-2684.1,-832.6,8223,-3665
2955,1702.5,183.2,-3684.6,-2685.1,-830,8221.9,-3666.8
2954.6,1702,181.1,-3682.6,-2689.9,-830.5,8217.8,-3668.7
2955.6,1701.7,179.7,-3684.6,-2693.6,-830.6,8213.9,-3671.1
2957.9,1701.6,179.3,-3683.9,-2694.2,-825.2,8214,-3667.8
2961.1,1707.4,184.7,-3677,-2689.9,-815.4,8220.4,-3659.1
2967.9,1716.1,192.8,-3679.5,-2685.4,-818.8,8222.1,-3657.9
2975.3,1725.3,201.7,-3681.7,-2680.3,-825.7,8226.6,-3656.2
2978.4,1723.1,203.4,-3679.9,-2678.5,-827.2,8230.6,-3654.1
2972.4,1720.6,197.7,-3678.4,-2679.2,-828.2,8229.3,-3655
2969.7,1719,193.6,-3679.2,-2679.5,-828.1,8228.7,-3655
2964.8,1712.5,186.2,-3684.2,-2683.4,-825.8,8225.1,-3658.2
2961.9,1710.3,181.1,-3680.5,-2681.1,-816.8,8227.7,-3653.2
2969.1,1716.2,185.9,-3674.8,-2680.9,-817.3,8226.2,-3652.9
2973.8,1721.5,190.7,-3676.4,-2680.5,-823.1,8226.4,-3654.7
2975.5,1725.7,197.2,-3677.9,-2675.3,-826.8,8230.6,-3652.6
2972.5,1720.3,197.6,-3677.3,-2676.1,-835.7,8229.3,-3656.8
2974.2,1717.3,197.7,-3677.2,-2682.7,-839.7,8225.9,-3659.1
2979.9,1716.4,192,-3682.7,-2690.4,-839.8,8219.8,-3661
2969.9,1717.7,181.7,-3681.4,-2687.1,-838.2,8223.6,-3659.8
2956.7,1717.6,181.6,-3675.3,-2689.1,-835.7,8222.8,-3660.8
2963.9,1718,187.2,-3680.6,-2689.6,-836,8219.8,-3662.2
2968.3,1718.1,196.7,-3682.6,-2688.8,-837.1,8219.1,-3662.3
2972.4,1720.4,199.9,-3677.4,-2689.6,-839.3,8217.9,-3662.9
2980.6,1721.3,200.1,-3679,-2688.3,-845.9,8218.2,-3666.9
2978.1,1725.7,197.7,-3690.6,-2687.8,-845.3,8220.6,-3666.2
2972.3,1722.4,192.3,-3693.1,-2688.3,-841.7,8219.9,-3665.5
2968.4,1713.9,186.5,-3689.9,-2690.2,-840.9,8217.2,-3669.6
2958.7,1706.2,176.7,-3692.9,-2694.6,-844.3,8211.7,-3675.9
2954.9,1700.6,177,-3691.7,-2696.6,-842.2,8210.6,-3674.6
2957.3,1703.4,181.1,-3690.2,-2696.5,-840.1,8211.8,-3672
2959.6,1706.9,184.2,-3684.6,-2692.2,-838.3,8216.1,-3668.8
2964,1708,188.5,-3682.8,-2685.6,-839.9,8222.1,-3664.7
2970,1707.5,190.1,-3685.6,-2683.4,-840.5,8225,-3663.2
2970.8,1710.8,189.6,-3686.3,-2685,-839.1,8224,-3662.8
2968.4,1713,185.7,-3687.7,-2690.2,-839.4,8218.9,-3663.3
2962.5,1709.1,181,-3686.1,-2688.2,-834.4,8220.7,-3660.7
2959.1,1706.8,178.7,-3677.3,-2686.3,-825.2,8222.7,-3658.8
2962.1,1707.8,177.8,-3672,-2685.1,-826.7,8221.5,-3660.3
2966.9,1712.2,179.4,-3667.8,-2684.2,-831.8,8223.4,-3658.3
2967.3,1718.6,183,-3665.7,-2681.2,-835.1,8228.3,-3653.9
2968.7,1726.4,185.7,-3666.8,-2678.3,-836.6,8231.1,-3649.6
2971.6,1726.6,186.5,-3669.2,-2675.1,-836.6,8234,-3647.9
2976.4,1718.8,185.1,-3676.3,-2677.5,-833.8,8232.3,-3651.3
2972.7,1718.3,183.5,-3684.2,-2675.7,-821.7,8234.4,-3646.7
2962.3,1718.9,185.3,-3680.4,-2675.4,-820,8232.1,-3647.9
2961.4,1716.5,184.5,-3674.2,-2677.7,-824.9,8229.2,-3653.6
2965.5,1716.5,184.6,-3674.1,-2677.8,-827.8,8227.7,-3655.8
2966.1,1715,182.2,-3676.5,-2679.9,-834.9,8225.5,-3659.8
2970,1713.1,188,-3678.6,-2681.3,-837.8,8227.3,-3658.7
2971.6,1713.3,190.3,-3679.7,-2679.7,-836.6,8229.8,-3658
2970.5,1716.9,191.6,-3684.1,-2675.1,-834.6,8233,-3656.5
2968.6,1720.6,192.9,-3679.5,-2683.9,-833.8,8227.2,-3657
2964.3,1716.7,187.8,-3675.3,-2684.4,-832.4,8225.7,-3657.3
2959,1713.3,182.1,-3675.7,-2685.2,-833.4,8223.6,-3660.2
2957.4,1713.2,177.9,-3677,-2686.4,-835.7,8221.5,-3662.9
2962.4,1712.5,180.2,-3677.6,-2688.5,-845.7,8218.3,-3669.1
2961.8,1712.8,183.7,-3674.6,-2689.7,-849.5,8218.4,-3671
2958.8,1714.4,184.4,-3669.7,-2686.8,-847.5,8220.1,-3668.9
2954.6,1713.5,181.7,-3669.9,-2685.7,-846.6,8219,-3669.2
2956.9,1708.2,177.8,-3679.3,-2690.3,-852.3,8213.8,-3676.2
2957.2,1703.5,176.5,-3686,-2692.1,-849.3,8212.6,-3674.7
2954.8,1697.8,172.7,-3688.9,-2693.5,-846.4,8210.4,-3674.2
2962.3,1696.5,170.4,-3689.6,-2694.8,-848,8206.8,-3674.6
2962.4,1702.3,171.6,-3689.1,-2692.3,-850.9,8208.4,-3672.9
2957.5,1706,175.2,-3685.1,-2689.7,-849.6,8210.4,-3672.2
2957.2,1703.8,177.8,-3685,-2684.3,-845.4,8214.8,-3669.5
2962.8,1709.8,183,-3689.5,-2682.5,-841.6,8217.2,-3666.9
2962.1,1711,186.3,-3685.6,-2681.7,-833.6,8218.6,-3664.5
2959,1707.4,185.1,-3670.6,-2682.2,-822.9,8219.1,-3663.5
2960,1711.1,183.8,-3667.2,-2681.9,-824.9,8217.3,-3664.8
2959.5,1712.8,183,-3674,-2682.3,-829.3,8216.5,-3667.3
2961.4,1714.6,183.4,-3679.2,-2679.4,-831.1,8218.3,-3667.7
2966.7,1717.7,189.4,-3686.5,-2678.1,-832.2,8219.5,-3665
2968.8,1718.6,196.1,-3692.6,-2680.2,-833.9,8219.9,-3663.6
2971,1714.4,197.6,-3683,-2678.2,-833.1,8223.2,-3661.9
2976.1,1709.2,198.1,-3675.3,-2672.3,-821.5,8229.6,-3656.2
2976.2,1714.3,200,-3666.3,-2675.1,-820.9,8226,-3656.9
2976.4,1717.3,198.2,-3666.3,-2679.1,-825.2,8222,-3660.7
2973.5,1714.8,194.5,-3670.8,-2680.3,-827.8,8219.6,-3664.6
2966.6,1711.6,187.9,-3678.3,-2685.2,-837.5,8212.9,-3672
2966,1710.1,186.6,-3680.4,-2684.4,-838.3,8214.4,-3671.8
2967.1,1711.8,187.5,-3675.2,-2682.3,-836.2,8216.4,-3670.7
2970,1715.1,190.9,-3672.3,-2680.8,-834.9,8218.9,-3667.2
2976.1,1719.3,193.9,-3670.3,-2676.7,-830.7,8224.4,-3659.8
2977.1,1720.2,192.3,-3672.4,-2672.4,-828.6,8227.3,-3659.7
2975.7,1719.1,191.9,-3677.8,-2673.9,-829.9,8226.6,-3661.9
2977.4,1719.6,194.8,-3689.4,-2677,-832.6,8223.5,-3663.5
2968.8,1713.1,190.7,-3694.5,-2679.8,-840,8219.5,-3668.5
2956.6,1708,187.5,-3685,-2683.7,-841.9,8216.3,-3670
2959.5,1706.5,191.1,-3688.3,-2681.8,-838.5,8217.8,-3667.4
2971.1,1709,192.3,-3691,-2681.8,-837.6,8216.5,-3669.8
2973.6,1710,189.6,-3683.7,-2684,-840.2,8213.5,-3674.9
2970.3,1707.7,189.7,-3677,-2678.6,-833.2,8220.3,-3668.4
2958.7,1709.8,189,-3672.5,-2678.1,-829.5,8222.2,-3665.2
2962.6,1714.8,191.9,-3670.8,-2682.9,-830.5,8218.7,-3666
2970.5,1711.9,187.8,-3679.8,-2682.8,-832.6,8218.9,-3666
2967.5,1707.8,180.2,-3688,-2680.8,-830.3,8220.4,-3666.4
2966.5,1707,181.4,-3685.2,-2679,-828.4,8221.3,-3666.8
2965.3,1712.3,181.7,-3680.1,-2678,-827.1,8221.9,-3664.9
2966.3,1719.1,183.4,-3674.3,-2677.1,-823.9,8222.3,-3661.1
2972.6,1719.7,190.9,-3664.1,-2669.9,-813.9,8230.6,-3652
2976.9,1722.9,196.8,-3660.6,-2666.3,-814.8,8233,-3650.8
2976,1726.3,199.3,-3664.3,-2667.6,-820.2,8231.3,-3654.1
2975.4,1728,199.6,-3669.1,-2666.7,-822.1,8233.1,-3653.4
2973.6,1723.6,195.5,-3677.6,-2669.5,-822.7,8230.6,-3654.5
2970.9,1717.6,189.7,-3674.9,-2670.5,-823.8,8229.3,-3655.1
2970.2,1714.1,188.7,-3672.7,-2667.9,-819.8,8232.4,-3653.3
2970.4,1718.5,190.1,-3671.6,-2664.9,-806.8,8237,-3647
2976.4,1726.8,196.1,-3661.8,-2660.8,-807.5,8237.7,-3645.5
2979.4,1728.7,197.4,-3656.4,-2658.4,-812.7,8240.3,-3645.8
2978.1,1724.6,194.4,-3657.7,-2658.3,-816.1,8240.3,-3646.9
2974.6,1719.3,194.9,-3667.7,-2663.6,-825.6,8234.4,-3655.1
2969,1717.5,196,-3674.9,-2667.8,-829.3,8231.6,-3658.7
2962.9,1713.4,190.3,-3677.4,-2667.3,-826.2,8231,-3659.4
2967.3,1713.6,190.2,-3671.1,-2669.3,-824.6,8228.8,-3661.3
2970.7,1717,194.5,-3672.9,-2665.9,-821.6,8231.9,-3657.4
2971.8,1723.3,196.1,-3678.9,-2660.7,-820.6,8236.1,-3653.7
2979.7,1727.6,197.3,-3670.9,-2656.8,-819.8,8239.9,-3650.7
2984,1724.8,194.3,-3668.7,-2657.6,-820.4,8239,-3652.3
2980.6,1722.2,190.2,-3672.9,-2661.1,-828.8,8235,-3658.7
2965.8,1718.8,185.2,-3674.1,-2662.8,-829.5,8235.8,-3658
2958.3,1713.4,180.9,-3675.7,-2667.4,-827.4,8231.6,-3660
2956.6,1711.9,177.1,-3683.1,-2672.4,-827.8,8225.9,-3664.3
2956.2,1711.1,176.4,-3693.9,-2673.3,-831.7,8224.6,-3668.2
2960.4,1708.9,177.1,-3686.9,-2673.8,-829.8,8226.3,-3664.6
2966.1,1713.4,185.2,-3682.7,-2672.3,-830.2,8227.2,-3663.7
2970,1718.5,192.6,-3682.9,-2670.2,-830.1,8229.4,-3661.8
2972.5,1720.2,192.5,-3681.6,-2672.9,-831,8228.8,-3661
2971.1,1714.3,189.5,-3684,-2675,-829.5,8227.1,-3663
2969,1711.2,189.8,-3685.9,-2678.1,-827.9,8224.3,-3664.3
2960.4,1709.8,182.7,-3682.5,-2680.3,-825.8,8222.2,-3666.1
2955.1,1713.8,181.3,-3674.1,-2680.1,-822.4,8221.3,-3665.8
2957.4,1719.9,188.7,-3665.7,-2677.8,-813,8226.3,-3658.7
2968.6,1722.5,192.8,-3663.4,-2674.2,-813.3,8228.6,-3656
2977.7,1725.8,200.2,-3669.4,-2669.2,-818.6,8233.3,-3654
2977.3,1728.2,202.4,-3674.4,-2664.5,-819.1,8239.9,-3649.3
2971,1727.1,197.7,-3671.2,-2665.9,-819.3,8239.1,-3651.2
2964.2,1725.7,194.1,-3672.5,-2667.7,-823,8237,-3653.3
2954.3,1718.9,187,-3677,-2671,-821,8235.4,-3653
2957.6,1711.5,185.7,-3674.2,-2671.6,-809.2,8236.1,-3649.5
2971.2,1716,192.4,-3668.1,-2672.9,-809.5,8230.7,-3652.9
2983.7,1721.1,199.9,-3667.4,-2675.5,-814.8,8227.6,-3658.5
2987.7,1725.8,202.2,-3664.6,-2672.4,-817.9,8230.1,-3659.4
2990.7,1728.7,199.6,-3662.6,-2672.1,-827,8228.9,-3664
2991.9,1723,198.1,-3666.9,-2672.2,-829,8228.7,-3666.1
2991.5,1712.8,199.6,-3672.2,-2673.8,-827.5,8226,-3667
2991.3,1709.3,203.7,-3671.4,-2677,-825.7,8225.2,-3664.7
2994.2,1706.9,200.2,-3669.9,-2680.4,-822.1,8225.2,-3663.6
2998.9,1706.1,198.2,-3671.7,-2680.5,-821.4,8224.4,-3665.1
3002.8,1708.4,205.8,-3670.7,-2677.8,-822.6,8225.9,-3664.9
3005.8,1703.7,209,-3669.3,-2673.8,-822.8,8228.9,-3662.6
3008.9,1700.2,207.6,-3671.8,-2672,-829.6,8230,-3663.5
3009,1698.4,207.2,-3673.9,-2672.9,-830,8230.9,-3663.3
3007.2,1694.6,206.4,-3676.7,-2676.1,-827.7,8228.4,-3664
3009.6,1689,203.3,-3680.1,-2678.7,-828.3,8224.3,-3668.3
3006.1,1680.3,198.4,-3685.8,-2683.4,-835.3,8218.1,-3676.8
3002,1673.3,194,-3685.7,-2684,-832.9,8218,-3674.1
3007.5,1671.5,189.8,-3684.8,-2680.8,-829.5,8220,-3671
3014.7,1676.2,195.5,-3681.6,-2679.1,-827.9,8222,-3668.8
3020,1677.8,203.5,-3682.4,-2675.9,-828.5,8226.8,-3664.2
3023.6,1675,206.4,-3683.4,-2673.1,-826.4,8230.7,-3661.4
3025.2,1673.7,209.6,-3682.8,-2673.8,-824.9,8229.6,-3662.6
3025.8,1665.5,210.6,-3687.5,-2675.1,-822.9,8227.9,-3663.9
3026.5,1660.3,212.7,-3691,-2675.1,-818.3,8227.5,-3662.6
3027,1659.8,212.7,-3689,-2674.3,-810.4,8229.2,-3659.6
3028.6,1664.4,210.3,-3689.7,-2671.4,-811.4,8230.8,-3657.8
3030.8,1663.7,208.4,-3690.7,-2665.9,-814.7,8237.4,-3655
3038.6,1661.1,213.5,-3689.6,-2664.6,-816.7,8240.8,-3653.3
3043.4,1664.1,218.7,-3683.8,-2663.7,-816.7,8241.2,-3651.9
3041.5,1665.3,219.2,-3681.3,-2661.2,-815.5,8243.2,-3650.8
3034.7,1665.9,218.7,-3683.2,-2664.1,-813.5,8241.8,-3651.8
3028.1,1666.9,217.1,-3686.5,-2662.5,-801.5,8244,-3647.1
3029.3,1668.7,213.5,-3688.3,-2662.1,-800.1,8241.7,-3647.8
3030.8,1665.9,209.9,-3691,-2660.7,-803.8,8242.1,-3650.2
3029.9,1667.2,203.2,-3686.6,-2661.3,-807.4,8241,-3651.9
3034.4,1668.6,200.7,-3686.2,-2665.6,-816.7,8236,-3657.4
3032.2,1667.9,209.9,-3686,-2664.5,-818.7,8238.6,-3655.7
3038.1,1667,219.1,-3685.1,-2664,-815.2,8240.1,-3653.5
3039.5,1671.7,222.1,-3686.3,-2663.9,-812.7,8240,-3652.6
3033.3,1672.1,218.8,-3687.4,-2662.1,-810.5,8241.6,-3650.8
3037.5,1668,216.7,-3693.6,-2661.4,-809.3,8242.1,-3650.7
3036.9,1660.5,216,-3691.4,-2664.1,-810.4,8238.1,-3655.1
3033.8,1655.4,213,-3682.7,-2665.2,-813,8234.6,-3658.1
3032.9,1655,209.8,-3678,-2665.2,-821.7,8233.2,-3662.2
3031.5,1652.9,207.4,-3677.1,-2665.6,-822.7,8234.9,-3661.2
3031.6,1654.6,211,-3675.6,-2660.7,-818.5,8239.9,-3656.7
3027.2,1656.4,213.3,-3675,-2661,-818.6,8239.7,-3659.9
3024.1,1657.6,212.2,-3680.6,-2666.9,-825.8,8233.2,-3668.6
3021.2,1656.6,208.7,-3681.1,-2670.2,-823.6,8230.7,-3665.7
3021.9,1649.4,203.8,-3683.3,-2672.8,-822.7,8227.2,-3666.3
3024.9,1649.4,201.9,-3681.2,-2676.2,-826,8223.4,-3667.8
3024.4,1652,202.8,-3678,-2675.6,-829.4,8225.1,-3666.9
3020.9,1654.1,204.2,-3679.1,-2671.4,-827.4,8229.2,-3664.8
3021.5,1657.3,207.1,-3683.2,-2667.2,-825.4,8233.2,-3662.2
3021.2,1659.2,206.6,-3685,-2661.6,-821.6,8238.3,-3659.3
3022.7,1659.8,203.4,-3680.7,-2661.8,-815.8,8239.1,-3656.1
3022.9,1657.8,202.3,-3673.9,-2661.3,-804.8,8241.5,-3650.3
3018.3,1659.4,202.7,-3679.4,-2657.1,-803.8,8242.9,-3649.2
3018.2,1661.1,201.3,-3682,-2657.9,-807.4,8241,-3653.7
3025.4,1654.3,197.7,-3680,-2656.6,-808.1,8240.9,-3655.2
3030.4,1654.8,200.4,-3679.8,-2656.1,-809.5,8240.8,-3655.1
3033,1662,205.4,-3687.7,-2654.7,-813.3,8243.6,-3654.1
3032.6,1664.5,207.8,-3686,-2654.6,-811.5,8246.2,-3650.9
3031.6,1665.6,209.6,-3689.5,-2650.3,-798.9,8251.6,-3642.7
3036.2,1664.3,213.9,-3688.5,-2649.3,-797.1,8250.7,-3641.9
3037,1657.1,214,-3680.3,-2650.5,-800.5,8247.6,-3644.9
3030.4,1651.4,206.6,-3673.5,-2651.1,-804.1,8245.1,-3648.7
3024.3,1648.1,200.9,-3675.2,-2656.8,-815.1,8237.2,-3658.7
3020.5,1650.4,201.5,-3676.1,-2661,-818,8235.8,-3660
3019.6,1655.5,203.7,-3677.4,-2661.1,-815.8,8236.7,-3656.6
3025.7,1658.9,209.1,-3678.9,-2658.6,-813.8,8239.7,-3653.1
3027.3,1666.8,213.1,-3672.1,-2654.7,-810.8,8244.2,-3649.8
3025.1,1667.4,212.6,-3667.7,-2650.6,-810.7,8246.1,-3650
3024.4,1664,209.2,-3668,-2653.6,-812.1,8243.6,-3652.2
3024.2,1662.5,205.2,-3671.6,-2656.5,-815.6,8240.4,-3655
3025.7,1660.4,201.8,-3680.5,-2661.9,-826.8,8232.8,-3663.6
3023,1656.9,199.1,-3688.8,-2664.2,-829.2,8231.7,-3664.8
3023.5,1654.2,200.6,-3688.5,-2665.2,-828.5,8231.6,-3663.7
3025.1,1650.8,202.7,-3689.5,-2666,-829.4,8230.1,-3666.1
3024.7,1650,203.8,-3689.4,-2664.9,-834.4,8230,-3670.6
3022.3,1652.8,201.3,-3680.8,-2663.5,-830.5,8232.8,-3667.2
3023.7,1655.7,204,-3682.6,-2667,-830.1,8228.4,-3668.4
3022.8,1656,209.2,-3695.9,-2665.4,-830,8229.4,-3667.5
3019,1652.1,207,-3696.7,-2665.1,-829.6,8231.1,-3666.9
3022.1,1647.4,197.4,-3691.9,-2668.4,-826.9,8228.3,-3668.7
3016.4,1648.2,194,-3686.3,-2671.1,-823.4,8225.9,-3668.5
3009.9,1649.9,198.4,-3683.5,-2666.4,-819.4,8229.2,-3665.1
3016.7,1650.7,199.5,-3686,-2661.3,-813.7,8233.6,-3660.9
3026.5,1657.7,205.8,-3679,-2658,-802.9,8239,-3653.5
3031.8,1662.6,211.9,-3677.1,-2654.8,-803.1,8240.7,-3652.9
3033,1663.6,216.8,-3679,-2655.9,-808.5,8239.8,-3654.8
3025.6,1666.9,218.6,-3684.7,-2655,-810.4,8241.4,-3653.4
3025.1,1664,217.2,-3688.6,-2657.9,-810.7,8238.5,-3656.1
3031.7,1657.9,213.9,-3688.4,-2658.6,-812.2,8236.8,-3658.8
3037.3,1654.1,213.2,-3688.1,-2656.3,-809.7,8240.2,-3656.4
3037.1,1653,215.2,-3688.6,-2650.5,-797.5,8245.9,-3649.9
3042.9,1665.2,224.7,-3680.8,-2647.6,-797.8,8248.2,-3646.3
3045.2,1672.9,230,-3678.8,-2645.4,-803,8250.3,-3645
3042,1672.6,227,-3678.9,-2643.6,-808.7,8250.5,-3648.4
3036.4,1669.7,223.3,-3677.8,-2650.8,-820.6,8242.5,-3657
3030.4,1664.9,219.8,-3681.7,-2655.6,-824,8239.8,-3658.8
3027.9,1660.6,214.5,-3688.8,-2656.7,-821,8237.5,-3658.2
3029.5,1661.8,212.7,-3690.8,-2654.1,-817.7,8238.6,-3657.3
3033.2,1666.3,216.5,-3684.8,-2650.3,-814.4,8242,-3654.8
3032.5,1667.5,218.3,-3683.9,-2643.1,-812.6,8246.7,-3651.8
3036.6,1668.8,220.3,-3681.9,-2638.7,-811,8251.5,-3647.9
3046,1673.8,221.2,-3678,-2642.3,-814.4,8248.3,-3649.3
3043.9,1672.5,214,-3679.3,-2649.2,-823.2,8242,-3655.2
3039.5,1666.2,208.1,-3679,-2651.5,-824.6,8240.3,-3657.7
3034.1,1659.2,209.1,-3676.4,-2654.6,-823.4,8237.2,-3658.8
3027.6,1658.1,210,-3687.9,-2653.6,-823.8,8236.9,-3661
3029.1,1658.9,210.1,-3696.6,-2654.2,-828,8235.9,-3667.1
3033.6,1659,213.8,-3688.8,-2656.7,-824.1,8235,-3664.3
3040,1666.3,219.5,-3680.9,-2658.3,-821.9,8234.1,-3661.9
3041,1670.2,221.5,-3678.8,-2653.6,-820.7,8239,-3657.3
3039.5,1675,222.6,-3674.6,-2650.4,-822.4,8242.7,-3655.1
3032.1,1671.5,219.4,-3673.7,-2649.6,-821,8241.4,-3657.8
3028.8,1667.4,219.6,-3675.5,-2648.9,-819.4,8240.9,-3657.4
3034,1665.4,220.9,-3677.2,-2653.5,-818.6,8236.9,-3658.5
3031.4,1662.6,219.6,-3680.8,-2651.5,-812.1,8239.1,-3654.1
3031.2,1667.3,223.1,-3674.8,-2644.1,-800.6,8247.8,-3645
3044.2,1674.6,226.8,-3678.1,-2639.7,-799.8,8250.4,-3642.2
3050.5,1678.7,231.7,-3676.9,-2635.3,-802.8,8255.4,-3639.6
3050.9,1681.1,234.7,-3667.8,-2635,-806.1,8257.1,-3639.4
3049,1679.3,230.2,-3668.2,-2634.7,-805.2,8257.4,-3640.7
3050.8,1676.6,224.8,-3669.8,-2635.4,-803.7,8257,-3641.2
3045.6,1674.3,220.6,-3667.8,-2640.4,-801.5,8253.8,-3641.8
3045.1,1675.1,221.4,-3668.1,-2640.1,-792.6,8255,-3638.1
3051.7,1679,226.2,-3666.9,-2636.7,-792.7,8256.7,-3636
3057.4,1676.6,231.2,-3660.9,-2634.6,-795.5,8258.2,-3636.5
3056.1,1679.5,232.9,-3655.5,-2631.8,-798.6,8259,-3636.5
3053.7,1685.2,232,-3658,-2630.1,-806.4,8259.7,-3639.6
3053.7,1686.2,230.5,-3660.2,-2633.1,-808.8,8259.6,-3641.1
3053.3,1680.6,231.6,-3660.9,-2638.5,-806.6,8255,-3641.1
3052.5,1678.7,237.9,-3659.2,-2643.8,-805.8,8251.1,-3642.2
3044.5,1676.1,236.5,-3656.4,-2643.9,-801.9,8251.2,-3642
3041.3,1680.4,231.7,-3655.8,-2641.4,-799.2,8252.9,-3640.7
3042,1685,230.9,-3655.1,-2638.3,-799,8255.7,-3639.2
3037.9,1686.8,232,-3659,-2634.2,-798.7,8259.9,-3636.5
3041.4,1686.5,234.7,-3662.8,-2630,-803.1,8263.3,-3636.7
3047.8,1681.6,235.6,-3656.9,-2632.8,-803.6,8261.5,-3639.1
3054.9,1675.8,234.9,-3657.2,-2635.1,-800,8257.3,-3642.1
3058.7,1679.4,234.1,-3660.5,-2640.1,-800.9,8251.3,-3647.2
3056.7,1678.4,232.5,-3668.2,-2647.1,-806.4,8243.6,-3656
3051.4,1675.5,231.4,-3669.5,-2648.2,-804.2,8242.7,-3654.4
3053.4,1672.8,232.7,-3670.2,-2646.3,-803.1,8245.1,-3650.7
3059.8,1669.4,235,-3668.9,-2640.8,-801.4,8251.2,-3645.3
3065.4,1665.9,234.7,-3666.3,-2633.6,-799.8,8258.3,-3640.3
3070.5,1669.2,237,-3662.9,-2630.1,-798.2,8261.5,-3638.9
3072,1672.8,237,-3660.3,-2632.4,-798.1,8259.9,-3639.3
3069.7,1668.7,236.3,-3661.5,-2633.5,-796.3,8258.3,-3639
3065.1,1663.6,236.9,-3663.2,-2631.5,-791.7,8258.8,-3638.1
3061.4,1666.1,237.5,-3657.7,-2632.4,-784.5,8258.6,-3635.1
3063.7,1671.5,240.1,-3653.3,-2633,-786.6,8256.9,-3635.2
3065.5,1677.9,242.7,-3649.4,-2631,-791.7,8258.8,-3635.1
3072.1,1680.5,245.7,-3650.6,-2626.8,-793.7,8264.2,-3633.1
3075.3,1683.3,247.4,-3648.9,-2623.4,-792.1,8267.9,-3630
3072,1688.4,247.3,-3643.8,-2622.7,-791.5,8269.7,-3628.9
3067.8,1688.4,246.8,-3651.2,-2624.8,-789.2,8269.1,-3628.6
3066.5,1684.9,247.8,-3656.5,-2620.7,-779.5,8273.3,-3624.1
3071.8,1683.1,247,-3656,-2621.9,-780.9,8270.2,-3626.9
3070.3,1680.2,240.9,-3656.7,-2622.9,-784.3,8268,-3630.3
3070.2,1680.8,242.4,-3661.9,-2619.1,-787.7,8269.5,-3630.8
3068.1,1682,243.3,-3659.4,-2624.2,-798,8263.8,-3638.3
3075.2,1681.5,243,-3653.5,-2628.9,-801.6,8262.4,-3640
3080.8,1678.3,246.7,-3645.7,-2628.4,-800.3,8263.5,-3637.8
3075.8,1674.6,248.4,-3643.3,-2625.8,-796.5,8266.5,-3635.5
3070.8,1672,249,-3643.7,-2626.6,-792.1,8265.5,-3634.3
3068,1676.5,250.1,-3645.1,-2628.8,-791.9,8263.4,-3635.1
3061.8,1673.9,246.1,-3647.1,-2630.3,-791.8,8261.6,-3636.7
3058.2,1673.2,241.2,-3647.8,-2630.6,-792.4,8260.5,-3638.4
3064.3,1677,241.3,-3653.2,-2632.7,-800.9,8258.6,-3641.8
3067.1,1675.5,241.3,-3658.6,-2633.7,-803.2,8259.7,-3641.4
3074,1676.3,245.3,-3662.3,-2630.2,-800,8263.3,-3637.4
3071,1675.4,244.3,-3660.4,-2629.2,-798.5,8263.4,-3638.9
3060.2,1672.7,237.4,-3656.3,-2631,-802.9,8259.8,-3645.1
3056.6,1666.9,230,-3653.7,-2632.5,-799.4,8258.6,-3644.1
3060.1,1662.5,229.3,-3658,-2635,-797.9,8256.1,-3645.1
3058.4,1660.8,230.4,-3661.9,-2637.3,-799.9,8253.8,-3646.5
3061.4,1662.4,233.4,-3663.1,-2636.2,-803.2,8254.8,-3644.4
3060.7,1664.4,237.2,-3664.7,-2632,-800.9,8259.8,-3640.8
3060.5,1664.9,240.9,-3662.5,-2632.9,-798.6,8260.9,-3637.9
3062.8,1667.6,240.4,-3662.2,-2630.8,-796.8,8262.5,-3634.7
3059.3,1672.4,235.9,-3660,-2627,-791.2,8265.4,-3632.4
3057.3,1673.2,236.1,-3653.7,-2626.3,-781.3,8267.9,-3628.6
3061.9,1674.1,240.4,-3655.2,-2628.6,-783.9,8265.2,-3630
3061.4,1672.3,239.1,-3660.5,-2629.9,-789.2,8264.2,-3633.2
3062.1,1671.4,237.1,-3663.7,-2629,-792.1,8264.8,-3635.2
3063.6,1674.2,236.7,-3663.8,-2624.6,-793.3,8267.8,-3633.9
3064.8,1676.5,241.1,-3661.3,-2624.4,-794.7,8269,-3632.9
3067,1675.5,245.1,-3659.6,-2625.2,-790.9,8270.2,-3632.1
3070.4,1675.2,249,-3655.9,-2623,-779.3,8273.5,-3626.5
3074.8,1671.8,250.9,-3649.8,-2620.8,-778.2,8272.7,-3627.1
3072.5,1673.7,246.1,-3648.3,-2623.1,-783.1,8270.7,-3631.6
3068.6,1677,243.1,-3650.5,-2627.3,-788.4,8266.1,-3636.3
3063.3,1672.5,236,-3661.5,-2630.8,-799.4,8259.3,-3645.4
3063.8,1667.3,233,-3661.5,-2632.9,-804.8,8258.4,-3646.7
3061.8,1666.3,233.3,-3656.8,-2631.3,-804.5,8260.3,-3645.7
3063,1669.7,238.3,-3652.6,-2630.9,-803.3,8261.8,-3643.3
3070.8,1674.1,246.9,-3651.3,-2627.1,-798.3,8267.1,-3637.4
3065.6,1674.5,247.5,-3654.6,-2622.6,-795.4,8270.4,-3634.9
3060.9,1674.7,245.3,-3662.7,-2624.3,-795.4,8269.3,-3635.2
3061.2,1671.7,236.5,-3663.5,-2626.2,-796.9,8266.6,-3638.1
3062.7,1667,228.6,-3668.9,-2632.7,-804.4,8258.8,-3646.2
3056.9,1668.9,228.4,-3674.3,-2638.9,-807.2,8254.2,-3649.6
3044.2,1671.1,231,-3666.6,-2639.6,-806.1,8254,-3647.4
3042.7,1666.2,233.2,-3663.6,-2638.3,-805.1,8254.8,-3647.9
3054.4,1664.7,235.6,-3666.8,-2640,-810.7,8250.5,-3654.6
3059.5,1661.4,237.3,-3668.9,-2637.4,-806.8,8254.1,-3649.6
3059,1661.8,235.4,-3665.3,-2636.3,-804.7,8254.6,-3647.5
3054.3,1662.4,231.1,-3666.2,-2634.7,-804.3,8254.5,-3647.2
3054.5,1664.1,227.8,-3668,-2635,-805.9,8254.3,-3646.9
3053.4,1660.6,225.3,-3669.4,-2639.8,-807.2,8250.7,-3649.4
3052.8,1658.6,225.9,-3670.3,-2640.7,-806.6,8250.2,-3648.8
3052.7,1657.7,229.4,-3672.7,-2636.8,-803.7,8253.6,-3645.7
3057.2,1661.9,232.8,-3670.9,-2636.2,-798.7,8255,-3641.3
3063.6,1665.8,237.7,-3663.9,-2631.9,-789,8262.1,-3633.5
3066.6,1668.3,240,-3659.2,-2627.3,-788.8,8264.7,-3632.6
3064.3,1667,242.4,-3660.8,-2628.3,-792.8,8264.4,-3637
3066.7,1667.7,245.4,-3667.8,-2631.2,-795.6,8262.9,-3638.4
3064.8,1667.4,239.9,-3680,-2630,-794.7,8263.1,-3638.5
3058.9,1668.1,233.4,-3681.3,-2629.9,-795.5,8262.7,-3638.8
3055.6,1666.6,232.4,-3676.7,-2630.8,-792.7,8263.8,-3635.6
3058,1665.9,235.9,-3671,-2630.7,-783.7,8266,-3629.7
3067.8,1672.5,241.7,-3666.5,-2626.8,-787.1,8266.4,-3629.7
3075.6,1675.4,240.8,-3662.5,-2623.8,-792.1,8268.8,-3631.5
3072.9,1674.7,242.4,-3659.4,-2624.2,-796.6,8266.7,-3634.1
3053.4,1669.4,239.2,-3657,-2631.8,-807,8257.3,-3641.7
3044.4,1667,235.4,-3657.2,-2637.1,-811.6,8254.1,-3644.6
3051.3,1660,232.7,-3661.9,-2639.9,-812.5,8251.6,-3649.5
3053.6,1659,235.3,-3665.5,-2639.1,-810.8,8253.3,-3647.4
3057.1,1659.4,238.6,-3666.7,-2636.4,-805.4,8257.6,-3642.6
3061.5,1662.9,238,-3673.2,-2633.5,-802.4,8260,-3640.7
3062.7,1667.6,240,-3674,-2626.8,-799.7,8265.4,-3637
3064.8,1669.3,241.6,-3672.1,-2628.2,-801.6,8263.5,-3638.5
3064.1,1666.8,240.9,-3675.7,-2636.2,-809.8,8256.5,-3646
3061.4,1663.2,236.5,-3674.3,-2642.7,-811.1,8253.9,-3649
3057.5,1657,231.6,-3672.8,-2647.1,-807.5,8250.8,-3649.9
3054.7,1651.1,232.4,-3677.5,-2647.9,-806.9,8248.8,-3652.5
3049.3,1650.9,228.2,-3684.6,-2647.3,-811.6,8247.7,-3657.4
