EEG1,EEG2,EEG3,EEG4,EEG5,EEG6,EEG7,EEG8
0,0,0,0,0,0,0,0
-8819.5,-7679.3,-9651.1,-17674.1,191.2,4285,4075.3,5784.1
-8824.7,-7693.3,-9662.3,-17692.9,183.4,4280.3,4069.6,5777.5
-8830.9,-7679.9,-9677.5,-17694.2,173.8,4274.4,4061.1,5768.2
-8832.7,-7685.4,-9687.5,-17699.3,170.1,4270.5,4058.4,5760.8
-8830.4,-7702.8,-9688.4,-17697.6,172.1,4269.7,4059.9,5756
-8833.5,-7704.9,-9692.2,-17691.7,168.4,4268.7,4053.9,5750.6
-8833,-7703.6,-9688.3,-17696.7,165.3,4267.2,4051.8,5746.3
-8831.3,-7698.3,-9677.1,-17690.9,165,4265.1,4053.2,5742.7
-8830.4,-7696.8,-9672.3,-17692.8,163.7,4264.5,4057.4,5741.8
-8833.4,-7691,-9669.6,-17691.7,156.2,4255.4,4067.3,5733.8
-8835.5,-7693,-9663.5,-17695.6,155.8,4251.6,4068.6,5728.8
-8838.2,-7696.9,-9668.8,-17691,154.5,4250.8,4061,5727.1
-8834.6,-7707.4,-9667.4,-17704.7,156.6,4251.2,4060.8,5727.7
-8832.3,-7703.3,-9668.1,-17706.3,148.8,4241.5,4061,5712.8
-8833.4,-7697.3,-9669,-17708.9,148.5,4241.6,4058.4,5710
-8833.4,-7700.7,-9669.9,-17708.3,154.5,4247,4057.3,5716.1
-8833.8,-7697.8,-9675.7,-17701.2,160.4,4253.6,4055,5720.8
-8834.5,-7701.2,-9670.3,-17694,177.8,4272.9,4049.6,5737.3
-8835.2,-7699.3,-9663.6,-17689.5,181.7,4277.8,4047.9,5747.9
-8837.3,-7702,-9660.9,-17686,176.5,4272.5,4049.4,5744.7
-8837,-7704.2,-9655.6,-17697.7,171.4,4265,4053.1,5736.8
-8837.7,-7697.1,-9654.3,-17709,155.1,4243.4,4061.7,5710.5
-8834.7,-7701,-9655.1,-17711.9,150.9,4238.1,4063.3,5701
-8835.4,-7699.6,-9659.9,-17706.1,153.8,4241.7,4058.9,5705
-8838.7,-7695.3,-9665,-17702.8,159.8,4248.1,4058.3,5714.3
-8846.7,-7692.3,-9668.1,-17693,167.4,4258.2,4059.9,5730.7
-8843.8,-7698.4,-9665.4,-17690,169.9,4261.1,4061.5,5736.1
-8841.6,-7698.4,-9666.6,-17691.9,168.7,4260,4059.3,5734.4
-8840.5,-7703.6,-9663.8,-17693.3,166.5,4258.8,4056.7,5733.4
-8836.5,-7705.2,-9662.8,-17692.1,165.9,4258.6,4053.7,5735.5
-8837.6,-7697.3,-9664.8,-17691.1,166.1,4258.4,4051.8,5735.6
-8841.6,-7691.6,-9666.1,-17687.3,167.5,4258.3,4053.8,5735.9
-8842.8,-7691.4,-9663.1,-17680.5,169.4,4262.1,4051.6,5740.1
-8840.9,-7697.3,-9665.6,-17676.8,182.4,4282.7,4040.6,5765.9
-8837.9,-7690.6,-9659.7,-17682.2,187.8,4287.2,4046,5773.5
-8837.6,-7685.6,-9656.9,-17686.3,185.3,4281.9,4055.2,5766.8
-8839,-7681.6,-9663.4,-17685.4,181,4277.2,4056.8,5760.3
-8839.6,-7686,-9667.9,-17683.8,174.4,4271.2,4051.8,5747.4
-8839.9,-7691.3,-9666.7,-17689.4,170.3,4267.2,4051.8,5742
-8841.1,-7688.9,-9667.6,-17690,168.5,4264.6,4053.2,5741
-8841,-7683.7,-9666.3,-17684.3,165.6,4260.8,4055.3,5738.4
-8838.4,-7681.9,-9657.4,-17676.2,159.3,4251.6,4065.1,5730.1
-8836.2,-7681.3,-9648.8,-17666.1,159.1,4247.2,4066.7,5724
-8838.4,-7680.2,-9647.9,-17663,159.1,4248.9,4061.7,5725
-8836.3,-7692.4,-9648.8,-17669.7,160.5,4250.1,4062,5725.7
-8834,-7691.9,-9658.6,-17668.4,151.1,4240,4062.5,5710
-8834,-7692.7,-9670.5,-17667.1,146.9,4236.9,4057.3,5704.3
-8833.3,-7699.4,-9674.9,-17683.3,151.5,4241.9,4054.9,5711.1
-8835.1,-7698.8,-9676.5,-17679.7,156.4,4246.7,4050.1,5716.6
-8835.4,-7699.6,-9672.1,-17673.9,172.3,4263.6,4042.3,5738.4
-8833.6,-7694.7,-9661.3,-17671.9,179,4270.4,4043.5,5751.2
-8830.6,-7686.9,-9654.3,-17668.5,176.2,4267.3,4047.2,5748.2
-8831.1,-7683.8,-9654.1,-17674.2,170.8,4261.1,4051.3,5741.4
-8828.5,-7690.9,-9656,-17681.5,155.7,4240.4,4061.5,5714.9
-8830.9,-7697.5,-9661.8,-17675.9,146.9,4231.4,4057.3,5700.5
-8836.6,-7699.6,-9666.1,-17674.1,147.2,4233.7,4049.3,5703.9
-8840.7,-7705.1,-9665.7,-17675.5,152.1,4237.7,4046.7,5711.3
-8846.2,-7708.9,-9665.3,-17671.5,160.4,4245.3,4049.2,5725.4
-8843.8,-7702.6,-9663.2,-17665.2,165.4,4248.5,4052,5732.2
-8839.8,-7692.1,-9664.9,-17667.7,167.1,4249.9,4052.4,5733
-8832.5,-7696.7,-9661.7,-17671.4,170.2,4251.7,4054.8,5734
-8828.3,-7694.2,-9659.5,-17670.3,170.7,4251.8,4052,5734
-8831.4,-7694.5,-9663.9,-17668.5,168,4251.4,4048.1,5733.2
-8831.7,-7697.6,-9665.5,-17673.4,165.2,4249.9,4047.2,5731.8
-8831.5,-7700.4,-9670,-17670.9,165.8,4253,4043.5,5735.8
-8827.4,-7707.6,-9673.6,-17673.7,179.4,4274.3,4032.4,5763
-8822.6,-7696.2,-9668.6,-17673.4,183.1,4277,4036.1,5768.6
-8818.3,-7687.2,-9662.5,-17672,180.8,4272.2,4047.2,5762.4
-8814.7,-7684,-9659.5,-17668.4,178.7,4269.4,4052.4,5755.8
-8812.3,-7692.5,-9666.4,-17673.1,175,4268.2,4051.9,5747.2
-8815.6,-7690.4,-9674.8,-17672.5,169.3,4264.4,4051.4,5740.7
-8820.2,-7694.8,-9677.3,-17671.6,167.1,4261.4,4052.2,5737.7
-8822.6,-7700.1,-9676.9,-17675.8,164.2,4257.7,4053.5,5734.9
-8822.9,-7692.3,-9677.7,-17676.1,157.4,4247.5,4062.1,5726.7
-8824.2,-7688,-9675,-17670.7,157.7,4244.4,4064.1,5723.3
-8825.5,-7687.6,-9667.6,-17663.5,159.5,4247.4,4060.6,5726.4
-8822.6,-7690.8,-9657.4,-17664.6,160.6,4248,4059.8,5726.3
-8816.5,-7689.5,-9650.3,-17674.6,154.1,4239.4,4063.2,5711.3
-8820.6,-7690.6,-9657.5,-17671.4,148.4,4236.1,4058.4,5703.7
-8825.2,-7691.8,-9666.2,-17669.6,148,4238,4051.3,5706.1
-8829.4,-7699.8,-9671,-17674.5,151.8,4242.7,4046.3,5710.8
-8834.4,-7699.9,-9671.3,-17672.8,164.8,4257.8,4035.9,5730.6
-8831.6,-7695.3,-9663.3,-17672.4,169.6,4264.3,4034.6,5745.5
-8826.8,-7689.3,-9657.3,-17668.7,168.3,4261.9,4038.5,5744
-8826.2,-7683.2,-9656.1,-17662.7,165.2,4256.4,4044.4,5737.7
-8817.9,-7688.9,-9649.5,-17679.3,154.6,4239.1,4060.4,5715.1
-8819,-7686.7,-9654.4,-17674.8,146.9,4230.7,4058.9,5700.5
-8824.3,-7694.2,-9661.8,-17663.9,146.4,4232,4051.4,5701.4
-8827.5,-7701.8,-9663.4,-17675.2,149.3,4236.1,4047.7,5707.9
-8840.2,-7697.9,-9667.4,-17678.9,154.3,4242.6,4047,5720.7
-8843.9,-7700.1,-9667.8,-17665.7,154.1,4243,4043.9,5725.2
-8836.3,-7702.8,-9664.3,-17667,155.8,4245.3,4041,5728.3
-8830.1,-7695.9,-9657.7,-17670.8,159.3,4248,4041.5,5731.7
-8824.4,-7689.5,-9649.1,-17672.5,163.4,4250.7,4044.8,5735.3
-8823.7,-7685.9,-9646.3,-17670.9,163.3,4251.1,4044.5,5735
-8824.5,-7683.3,-9651.3,-17668.6,160.2,4248.6,4043,5731.8
-8826.9,-7691.6,-9657,-17669.1,162.5,4251.8,4041.3,5734.8
-8830.5,-7699.1,-9664.8,-17668.4,174.5,4269.8,4027.3,5758
-8830.9,-7692.3,-9664.7,-17671.1,175.3,4269.4,4027.9,5762
-8829.6,-7686.8,-9656.2,-17671.8,172.8,4263.1,4037.1,5755.4
-8826.9,-7686.8,-9651.7,-17669.9,173.2,4261.3,4043,5751.7
-8822.2,-7685.3,-9654,-17665.6,170.4,4259.8,4042.5,5744.2
-8820.6,-7682.6,-9655.1,-17665.4,168.6,4258.4,4046.2,5739.5
-8822.3,-7677.6,-9660.4,-17663.2,167.4,4255.6,4048.6,5736.1
-8825.8,-7680.5,-9664.2,-17668,164.4,4251.6,4051.3,5732.1
-8830,-7676.1,-9660.1,-17669.4,154.2,4239.3,4057.8,5720.5
-8831.5,-7681,-9658.6,-17670.2,151.7,4234.4,4057.2,5714.8
-8832.3,-7682.2,-9660.7,-17668,151.6,4235.7,4051.7,5716.7
-8829.7,-7688.9,-9654.6,-17674.5,155.1,4237.9,4054.2,5719.7
-8823.6,-7685.5,-9651.6,-17677.3,150.2,4230.6,4060.3,5707.3
-8822.7,-7681.5,-9649.9,-17678.1,148.5,4230,4058.9,5702.8
-8824.6,-7682,-9652.6,-17676.5,150,4233.8,4053.8,5707.1
-8826.8,-7687.3,-9657.3,-17677.6,153.8,4239.4,4049.1,5712.2
-8829.1,-7691.3,-9663.7,-17669.1,166,4254.8,4037.7,5730.4
-8831.2,-7693,-9664.2,-17667.2,168.6,4259.8,4034.9,5741.4
-8830.7,-7695.4,-9661.9,-17669.7,164.2,4256.7,4037.2,5739.6
-8828.1,-7698.4,-9655.7,-17666.7,159.8,4250.9,4041.6,5733.4
-8823.9,-7693,-9652,-17669.5,144.7,4230.1,4052.4,5707.2
-8824.1,-7695.3,-9649.9,-17671,142,4225.8,4056.3,5697.3
-8820.5,-7694.6,-9648.4,-17678.1,145.9,4231.9,4053.9,5702.3
-8823.1,-7692.8,-9656.8,-17675.4,145.6,4235.6,4048.2,5707.1
-8836.2,-7689,-9664.7,-17667.9,148.9,4242,4046.4,5719.3
-8836.7,-7692.4,-9666.4,-17667.5,149.2,4242.7,4044.5,5723.6
-8838.3,-7694.8,-9669.3,-17666.6,147.6,4240.9,4040,5723.3
-8837.9,-7685.5,-9667.2,-17665.2,146.4,4240.1,4037.1,5723.4
-8831,-7685.8,-9660.9,-17660.5,149.6,4242.6,4038.1,5727.7
-8828.5,-7687.7,-9656.9,-17657.7,152.5,4245.8,4039.3,5731.2
-8827.2,-7681.7,-9653.9,-17659.6,154.4,4247.5,4042.3,5732.1
-8827.6,-7678.2,-9656.9,-17665.4,158.2,4252.9,4041.7,5736.6
-8824.2,-7687.3,-9665.7,-17664.9,171.5,4273.4,4028.8,5761.3
-8821.8,-7696.5,-9668.2,-17663.8,174.2,4277.7,4030.2,5769.4
-8824.8,-7693.8,-9664.9,-17662.9,168.4,4269.4,4036.2,5759.6
-8827.8,-7690.9,-9666,-17663.8,164.6,4264,4039,5753
-8827.1,-7694.3,-9669.2,-17658.6,160.4,4260.5,4037.6,5744.1
-8824.2,-7690.5,-9665.4,-17659.7,157,4257.4,4038.8,5738.6
-8821,-7681.7,-9659.5,-17659.9,156.5,4255.6,4041.6,5737.2
-8822.3,-7675.5,-9659.2,-17656.1,154.7,4253,4045.2,5735.1
-8824.2,-7672.2,-9655.9,-17659,149.9,4244.3,4056.3,5726.3
-8823.9,-7679.1,-9658.2,-17663.9,152.2,4242,4060.1,5721.7
-8825.3,-7680.5,-9670.3,-17663,153.2,4242.3,4054.6,5721.2
-8827.9,-7683.7,-9674,-17665.5,151.5,4241.2,4051,5720.9
-8827.7,-7683,-9670.7,-17670.9,143.3,4232,4053.8,5707.3
-8828,-7678.5,-9667,-17677.7,142.3,4231,4052.4,5703
-8830.5,-7671.8,-9667.3,-17673.1,145.9,4235.2,4048.9,5708.6
-8829.8,-7671,-9667.4,-17669.3,150.8,4241.1,4045.4,5714.2
-8830.3,-7679.4,-9664.1,-17669.1,168.4,4259.3,4039.9,5734.9
-8827.9,-7678.9,-9665.2,-17671.1,174.1,4265.9,4039.6,5747.5
-8828.5,-7678.8,-9666.4,-17673,170.6,4263.7,4042.1,5745.9
-8829.5,-7680.3,-9665.3,-17675,163.6,4256.2,4043.8,5737.2
-8827,-7678.8,-9664.1,-17686,145.7,4233.2,4050.7,5709.2
-8826.5,-7678.7,-9663.6,-17691.3,140.9,4227.1,4051.9,5698.2
-8825.4,-7681.1,-9666,-17685.8,144.8,4232.2,4048.6,5703.3
-8828,-7680.1,-9666.9,-17680.6,146.7,4236.6,4045.1,5710.1
-8835.7,-7678.4,-9664.6,-17678.9,153,4244.1,4047.4,5723.3
-8836,-7673.9,-9663,-17680.3,155.9,4247,4049.1,5728
-8835.5,-7673.7,-9664,-17681,154.1,4246.2,4045.7,5726.5
-8833.1,-7677.7,-9666.3,-17683.7,152,4244.9,4042.1,5724.9
-8830.3,-7678.6,-9665.4,-17680.4,152.2,4245.4,4039.1,5725.8
-8832.3,-7678,-9668.3,-17675,153,4246.8,4038,5728
-8831.4,-7676.4,-9664.5,-17677.8,154.3,4247.9,4040.4,5729.1
-8830.5,-7683.6,-9661.5,-17677.2,158.7,4253.1,4039.9,5734.1
-8825.5,-7685.5,-9664.2,-17674.8,173.5,4274.4,4028.2,5760.5
-8820.7,-7679.3,-9658.9,-17677,178.3,4279.8,4031.3,5768.6
-8821.3,-7678,-9661.2,-17680.5,174.1,4274,4039.9,5761.1
-8821.4,-7672.1,-9665.5,-17681.8,170,4268.8,4042.5,5753.5
-8822.7,-7677.3,-9669.7,-17683.2,165.1,4264.9,4039.7,5743.3
-8825.2,-7681.1,-9670.9,-17684.9,160,4261.3,4039.1,5737.1
-8827.4,-7681.5,-9668.1,-17691.6,159.7,4259.7,4042.8,5736.7
-8828.4,-7676.6,-9667.9,-17689.7,158.3,4257.6,4047.6,5736
-8827.5,-7669.9,-9665.1,-17683.2,152.7,4248.7,4058.3,5728
-8828.1,-7669,-9661.9,-17675.8,153.7,4246.4,4061.9,5723.8
-8825.9,-7669.4,-9663.7,-17673.9,154.9,4248.6,4057.5,5724.8
-8825.3,-7665.5,-9670.3,-17680.3,154.5,4248.7,4055.5,5723.7
-8825.3,-7669.8,-9677.1,-17685.8,147.2,4239.3,4058.3,5709.3
-8828.1,-7682.9,-9679.6,-17686,145.3,4237.4,4055.4,5705.2
-8830.1,-7683.8,-9678.5,-17697.9,147.7,4240.6,4049.4,5710.2
-8828.2,-7686.2,-9677.1,-17699.4,153.3,4246,4045.6,5715.9
-8831.5,-7681.8,-9674.9,-17691,168.7,4261.9,4037.5,5735.4
-8828.3,-7672.7,-9667.9,-17690.5,175.9,4269.2,4038.9,5749
-8825.7,-7672.3,-9664.8,-17688.8,175.3,4268.1,4044.9,5747.3
-8825.2,-7671.5,-9665.2,-17686.1,169,4261.9,4047.7,5739.4
-8821.4,-7669.2,-9665.4,-17692.9,152,4240.1,4055.5,5711.7
-8823.1,-7676.1,-9669.5,-17695.1,144.8,4231.5,4053.1,5697.7
-8827.8,-7682.4,-9675.5,-17698.3,146.5,4235.1,4047,5701.7
-8829,-7682.4,-9676.4,-17702,148.6,4239.7,4043.5,5709.2
-8835.9,-7685,-9672.5,-17700.8,155.6,4248.8,4046.9,5724.4
-8835.4,-7682.2,-9668.4,-17697.8,159.5,4251.7,4048.6,5730.2
-8831.7,-7676.4,-9664.9,-17689.4,160.9,4252.5,4047.3,5729.9
-8829.7,-7677,-9661,-17690,162.1,4253.6,4046.8,5730.5
-8823.9,-7677.8,-9653.4,-17693.6,163.5,4254.8,4045.5,5732.6
-8823,-7679.2,-9656.3,-17694.4,162.4,4255.4,4043.4,5732.8
-8830.5,-7676.8,-9666.8,-17688.3,159.9,4254.6,4042,5731.7
-8831.8,-7679.4,-9672.9,-17687.5,160.4,4257.7,4037.7,5735.8
-8828.3,-7690.5,-9675.1,-17689.7,175.2,4279.4,4027.6,5763.4
-8825.1,-7681.5,-9668.4,-17694.9,180.6,4283.5,4032.6,5771.3
-8823.5,-7673.9,-9662.7,-17693.4,178.8,4278.6,4043.4,5765.3
-8821.3,-7666.9,-9661.6,-17688.8,177.7,4275.6,4049.1,5758.6
-8818.2,-7669.5,-9667.4,-17690.7,172,4272.5,4046.3,5748.1
-8818.2,-7671,-9667.4,-17693,166.2,4268.4,4045.8,5741.2
-8822.1,-7673,-9670.2,-17691.4,161.8,4264,4044.8,5737.7
-8824.2,-7676.1,-9673.6,-17690.3,155.9,4258.9,4044.7,5734.5
-8823.5,-7670,-9668.5,-17693.4,149.1,4248.5,4054.2,5726.1
-8821.1,-7666.7,-9667.4,-17690.7,150.9,4246.2,4058.3,5722.9
-8818.5,-7668,-9674,-17685.9,155.6,4250,4057.9,5726.7
-8818.2,-7660.8,-9674.9,-17679.4,157.3,4251,4057.8,5726.7
-8815.2,-7659.5,-9670.3,-17692.8,151.5,4243.1,4061.9,5712.8
-8815.9,-7668,-9673.1,-17694.8,150.8,4242.5,4060.8,5708
-8819.8,-7676.9,-9678.2,-17689.1,150.5,4244.5,4053.5,5710.7
-8826.1,-7681.8,-9682.1,-17688.5,151.3,4247.4,4044.8,5714.2
-8830.4,-7683.2,-9680.1,-17695.6,165.7,4263.8,4035.9,5734.6
-8831.3,-7677.8,-9674.2,-17693.4,171.3,4270.3,4035.8,5749.3
-8829.3,-7673,-9668.8,-17690.4,170.3,4268.9,4041.4,5749.6
-8825.7,-7666.6,-9665.2,-17690.6,167.5,4265,4048.8,5744.9
-8821.6,-7663.9,-9663,-17696.1,153.1,4245.8,4061.2,5720
-8822.7,-7670.1,-9661.5,-17697.9,147.3,4240.1,4061.2,5707.8
-8825.3,-7678.5,-9666.6,-17697.5,148.1,4243.2,4054.6,5710.9
-8833.5,-7680.4,-9673.6,-17694.2,148.7,4245.8,4048.8,5716.1
-8845.8,-7681.3,-9676.9,-17689.7,151.1,4250.6,4046.3,5727.4
-8843.8,-7682.9,-9674.6,-17693.2,153.5,4251.6,4046.4,5732.5
-8838.5,-7676.8,-9673.3,-17696.6,155.2,4252.8,4045.8,5735.4
-8830.4,-7676.1,-9668.4,-17696.1,158.5,4254.9,4047.9,5737.9
-8823.3,-7673.4,-9666.1,-17688.8,161.7,4257.5,4049.3,5741
-8822.7,-7673.4,-9669.4,-17684.3,163.1,4259.5,4048.9,5741.7
-8822.8,-7673.7,-9671.2,-17682.4,161.4,4258.7,4047.6,5739.7
-8823.4,-7673.4,-9676.4,-17682.9,160.8,4260.9,4042.2,5741.3
-8822.1,-7684.7,-9681.5,-17684.1,170.3,4277.9,4027.7,5762.9
-8825.1,-7681.7,-9680.9,-17683.7,170.2,4277.5,4029.5,5766.8
-8825.9,-7671.1,-9676.9,-17688,168.4,4271.7,4040,5760.4
-8823.2,-7662.3,-9673.4,-17687.8,167.8,4268.2,4045.3,5754.7
-8818.8,-7668.1,-9673.1,-17685.2,167.3,4267.6,4046.2,5747.1
-8819,-7672.1,-9671.6,-17682.9,167.4,4267.1,4050.4,5742.8
-8821.5,-7668.5,-9670.7,-17684,167.1,4265.3,4052.4,5740.3
-8823,-7668.6,-9671,-17688.5,163.4,4261.3,4053.4,5737.3
-8827,-7668,-9668.9,-17689.6,155.3,4250.6,4060.7,5727.7
-8829.3,-7671.6,-9670.5,-17688.9,153.4,4245.9,4058.9,5722.8
-8829.1,-7673,-9675,-17686.6,155.6,4248.3,4054.1,5725.7
-8825.9,-7670.3,-9674.5,-17687.1,156.8,4249.2,4053.7,5726.4
-8821.3,-7666.2,-9668.4,-17688.9,153,4243.2,4059.7,5714.8
-8819.4,-7669.2,-9668.9,-17685.4,152.5,4243.9,4058.2,5711.6
-8820.6,-7669.4,-9679.1,-17679.4,155.4,4248,4054.3,5716.1
-8821.3,-7671.2,-9686.6,-17688.6,161.6,4254.2,4052.5,5721.8
-8824.5,-7676.9,-9686.8,-17691,174.9,4269.3,4042.7,5740.3
-8828.5,-7679.4,-9679.1,-17693.4,177.9,4272.9,4040.5,5750.8
-8831.3,-7679.2,-9673.6,-17693.8,173.7,4267.6,4042.6,5747.2
-8831.1,-7677.2,-9670.8,-17689.6,169.3,4261.1,4047.8,5741.1
-8825.1,-7676.5,-9666,-17692,154.3,4241.1,4058.2,5716.6
-8821.7,-7674.7,-9666.7,-17688,150.9,4236.9,4060.5,5707.6
-8823.1,-7667.6,-9674.4,-17685.9,153.6,4241.7,4055.1,5712.6
-8828.8,-7673.2,-9677.3,-17690.7,158.6,4247.7,4053.3,5719.9
-8841.6,-7673.8,-9682.7,-17691.6,163.9,4254.6,4053.6,5732.1
-8846.4,-7677.3,-9681.7,-17693,165.2,4255.9,4052.7,5736.2
-8846.9,-7680.5,-9682.8,-17696.6,164.8,4255.9,4050,5737.1
-8842.2,-7681.2,-9680.7,-17696.6,165.2,4256.3,4048.6,5738.3
-8832.9,-7680.7,-9674.6,-17693.1,167.5,4257.9,4047.6,5742
-8827.4,-7676.6,-9673.8,-17689.6,168.3,4259.1,4046.8,5744.2
-8823.8,-7668.2,-9671.5,-17685.4,168.8,4259.7,4048.2,5744.1
-8822.6,-7667.3,-9672.9,-17685.5,171.4,4264,4046.4,5747.7
-8823,-7676.5,-9678.7,-17683.8,182.9,4281.8,4033.5,5769.9
-8823.3,-7677.4,-9674.6,-17690.9,185.5,4282.8,4037.4,5774
-8823.8,-7676.4,-9669.6,-17695.5,180.7,4275.4,4044.5,5766
-8822,-7676.9,-9672,-17695.3,176.5,4270.6,4046.7,5758.7
-8817.4,-7676.8,-9676.7,-17696.7,171.8,4267.7,4044.4,5749.8
-8816.7,-7671.8,-9674.2,-17696.7,169.6,4265.4,4046.8,5745.2
-8819.3,-7668.1,-9672.1,-17693.3,169.3,4264.1,4050.4,5743.7
-8813.1,-7669.3,-9667.8,-17689.7,168.2,4262.4,4055,5741.6
-8814.3,-7669.1,-9661.5,-17690.5,162.3,4253.2,4065.3,5732.5
-8817.7,-7671.5,-9659.3,-17694.1,161.5,4249.2,4065.1,5726.3
-8819.2,-7672.6,-9665.2,-17696.4,160.8,4250,4057.7,5726.4
-8819.1,-7680.9,-9669.5,-17695.2,160.3,4249.8,4055.3,5726.1
-8816.6,-7680.8,-9669,-17699.7,153.1,4241.7,4057.7,5713.7
-8815.4,-7678.6,-9669.3,-17704.7,152.2,4242.2,4056.4,5711.5
-8815.6,-7678.3,-9671.8,-17704,156.7,4247.5,4054.2,5717.8
-8817.9,-7680,-9673.3,-17700.8,162.2,4253.5,4052.3,5723.6
-8820.7,-7679,-9674.2,-17696.3,178.1,4270.3,4046,5743.3
-8819.4,-7678,-9673.3,-17698.5,182.1,4276.3,4045.7,5755
-8818.4,-7676.5,-9673,-17703.9,178,4273.2,4048.8,5752.1
-8817.3,-7676.3,-9671.9,-17707.2,169.8,4265.7,4049.9,5744
-8816.3,-7676.8,-9672.8,-17715.1,153.6,4244.2,4058.6,5718.1
-8818.5,-7680.9,-9677.4,-17715.1,150.4,4238.5,4060.4,5708.2
-8818,-7687.6,-9677.4,-17714.4,155.2,4244.3,4058,5714.2
-8821.1,-7687.8,-9675.8,-17711.4,160.9,4250.7,4056.9,5722.7
-8829.3,-7683.9,-9671.2,-17706.1,166.3,4258.3,4057.8,5735.3
-8830.5,-7681.5,-9666.6,-17706.1,168.7,4260.9,4057.7,5739.6
-8828.3,-7681.4,-9667.2,-17711.7,168.1,4261.6,4054.6,5740.5
-8828,-7685.4,-9663.5,-17717,165.9,4260.3,4050.2,5739.7
-8821.9,-7687.1,-9663.1,-17714.2,165.2,4258.8,4047.2,5739.5
-8819.3,-7684.2,-9669.5,-17709.6,164.1,4258.3,4044.4,5740.4
-8818.1,-7684.3,-9666.6,-17705,164.1,4257.5,4045.5,5739.9
-8816.7,-7682.2,-9667.6,-17699.5,167.6,4261.5,4044.8,5744
-8813.1,-7681,-9669.9,-17693.5,180.1,4280.7,4032.6,5767.3
-8811.2,-7678.3,-9663.1,-17698.4,184.4,4283.9,4038.3,5773
-8812.2,-7674.9,-9658.9,-17699.8,180.8,4277.5,4046.8,5764.1
-8813.4,-7676.1,-9658.2,-17699,177.2,4273,4048.9,5756.3
-8815.4,-7681.7,-9664.5,-17701.6,171.3,4269.8,4044.9,5747.2
-8816.4,-7682,-9666.3,-17704.1,164.6,4264.9,4042.2,5740.7
-8815.3,-7682,-9663.5,-17704.8,163.6,4263.1,4043.9,5739.4
-8816.3,-7675.2,-9664.4,-17701.7,161.5,4260.6,4047.5,5738.2
-8816.9,-7665.7,-9660.1,-17697.2,156.2,4251.4,4058.8,5730.2
-8815.2,-7674.4,-9652.9,-17698.1,161.1,4252,4066.7,5728.5
-8816.9,-7674.8,-9658,-17695.6,162.2,4254.7,4062.9,5730.1
-8815,-7673.7,-9659,-17703.4,161.8,4254.9,4061.1,5729.6
-8814.1,-7674.3,-9661.7,-17707.1,153,4245.3,4060.4,5714.5
-8818.6,-7681.6,-9668.7,-17708.7,150.1,4243.3,4055.3,5709.8
-8820.2,-7689.5,-9670.4,-17712.2,153.5,4247,4051,5714.2
-8822.2,-7686.2,-9671.1,-17712.2,156.6,4251.1,4045.5,5718.6
-8825.3,-7683.2,-9666.7,-17708,174,4269.5,4040.4,5740.8
-8825.2,-7677.7,-9662,-17704.3,181,4277.7,4042.6,5755.6
-8821.1,-7672.7,-9660.4,-17703.1,179.8,4276.4,4048.5,5754.3
-8820,-7672,-9660.5,-17709.5,175.5,4270.8,4054.5,5747.4
-8821.2,-7671.9,-9661.3,-17718.6,159,4249.9,4063.9,5721.1
-8823.1,-7676.5,-9666.9,-17719.4,151.2,4242.5,4061.4,5707.9
-8828.2,-7679.5,-9677,-17715.7,151.8,4245.3,4054,5711.4
-8833.4,-7680.6,-9684.2,-17714.4,154.7,4249.6,4050.3,5718.9
-8841.4,-7680,-9684.6,-17713.3,162.3,4258.1,4053.3,5733.6
-8839,-7679.5,-9677.5,-17715.7,168,4261.9,4056.8,5740.6
-8834.1,-7679.4,-9672.2,-17713.7,169,4263,4055.8,5741.7
-8831,-7678.8,-9667.5,-17711.9,170.3,4263.8,4056,5742.1
-8827,-7678.2,-9666.8,-17710.7,171.6,4264.6,4054.5,5743.3
-8827.7,-7680.9,-9671.7,-17711.4,171,4265,4052.4,5744.1
-8828.9,-7683.5,-9673.9,-17712.8,167.4,4262.3,4049.7,5741.7
-8830.5,-7686.1,-9674.5,-17721.4,169.3,4265.3,4046.8,5745.6
-8828.7,-7688.5,-9677.6,-17720.4,182.5,4285.4,4035.5,5771.8
-8828.3,-7684.3,-9675.5,-17712.5,186.2,4288.6,4040.2,5779.3
-8828.8,-7676.4,-9672.6,-17705.6,183.8,4282.8,4050.6,5772.4
-8825.7,-7671.2,-9670.2,-17706.6,182.2,4279.4,4055.8,5765.3
-8824.4,-7676.1,-9673.2,-17707.3,178.3,4277.1,4054.8,5755.4
-8824.9,-7680.2,-9672.2,-17707.8,173,4273.2,4054.4,5747.7
-8828.8,-7687.4,-9671.8,-17709.9,169.9,4269.7,4054,5744
-8833.7,-7689.2,-9671.6,-17710.5,165.6,4265.8,4054.2,5741.4
-8835.2,-7683.4,-9666.7,-17717.3,159.1,4255.5,4063,5733.1
-8834.3,-7682.2,-9662.1,-17717.3,160.9,4253.4,4066.6,5730.2
-8831.2,-7679.9,-9664,-17713.5,164.7,4257.3,4065.1,5733.5
-8828.7,-7676.5,-9664.8,-17712.5,166.7,4258.3,4065.7,5733.8
-8825.5,-7675.9,-9663.2,-17712.1,160.4,4250.8,4069.6,5720
-8827.1,-7681.6,-9667.3,-17706.3,155.2,4247.6,4063,5712.7
-8828.7,-7692.7,-9669.2,-17710.2,157.1,4250.2,4057,5716.5
-8834,-7694.1,-9671.8,-17721.5,159.9,4253.8,4051.2,5721.2
-8837.9,-7699.1,-9671.6,-17721.4,172.5,4268.1,4040.5,5740
-8836.4,-7697.3,-9667.8,-17716.9,178.6,4274.7,4041.2,5754.3
-8834.5,-7689.5,-9665.4,-17714.5,177.2,4273.4,4047,5754.1
-8830.2,-7684.1,-9663.5,-17715.1,174.9,4269.7,4054.2,5749.7
-8824.9,-7681,-9664.5,-17720.1,160.5,4250.2,4065.2,5724.6
-8825.4,-7688.4,-9668.2,-17717.6,154.8,4244.6,4065.5,5713.1
-8826.7,-7695.5,-9670.3,-17715.2,154.6,4246.6,4057.8,5715.2
-8834.5,-7699.3,-9676.9,-17716.9,155,4249.2,4051.9,5720
-8846.8,-7696.6,-9682.8,-17718.3,157.9,4255.5,4049.9,5732
-8847.5,-7694.8,-9679.4,-17715.1,159.4,4256.4,4048.4,5737.3
-8845.3,-7693.3,-9672.5,-17714.3,160.9,4256.8,4047.4,5739.3
-8840.1,-7688.9,-9661.8,-17716.6,162.3,4257.7,4047.6,5740.4
-8833.1,-7683.2,-9650.8,-17711.5,165.1,4260.1,4048.1,5743
-8833.3,-7681.2,-9650.8,-17705.7,163.9,4261,4046.8,5743.8
-8834.9,-7682.3,-9652.7,-17707.3,162.5,4260.7,4047,5742.1
-8835.8,-7686.2,-9657.7,-17713.2,163,4263,4042.5,5743.5
-8833.6,-7694.6,-9667.7,-17716.4,172.2,4279.7,4027.4,5765.9
-8833.3,-7695.1,-9666.5,-17718.4,173.6,4280.3,4030.1,5770.5
-8832.6,-7690.9,-9661.3,-17715.4,172,4274.2,4040.8,5763.7
-8828.7,-7684.8,-9661.6,-17709.6,171.5,4271.4,4046.8,5759
-8825.8,-7683.5,-9664.9,-17708.1,169.7,4270.8,4047.1,5751.2
-8821,-7694.3,-9660.6,-17711.2,170.2,4271.2,4051.8,5747.9
-8819.6,-7697.1,-9658.8,-17711.5,169.1,4269.2,4053.7,5745.3
-8824,-7694.7,-9661.6,-17713.9,165.1,4265,4055,5740.7
-8827,-7689.3,-9663.1,-17726.1,157.6,4254.8,4063.2,5731.1
-8826.4,-7690.8,-9662.4,-17727.8,155.7,4250.4,4062.7,5726.2
-8829.8,-7692.8,-9663.6,-17721.9,156.8,4251.7,4057.9,5728.1
-8825.5,-7693,-9661.5,-17719,158.8,4252.7,4057.6,5728.8
-8821.1,-7687.2,-9661.2,-17721.6,152.3,4244.4,4061.5,5715.6
-8819.8,-7686.9,-9660.3,-17725.8,152.5,4245.3,4061.6,5712.9
-8820.5,-7688.9,-9661.1,-17726.9,155.4,4250,4057.8,5717.3
-8822.3,-7694.5,-9662.3,-17729.2,158,4254.7,4052.5,5721
-8825.3,-7697.7,-9666.8,-17727.6,171.2,4270.3,4042.7,5739.9
-8826.2,-7694.1,-9671.6,-17724.4,173.7,4274.8,4039.4,5751.5
-8826.5,-7692.4,-9670.6,-17727.3,169.8,4271.5,4041.9,5749.2
-8824,-7688.6,-9665.7,-17733.3,166.1,4266.1,4047.5,5744
-8819.5,-7687,-9662.7,-17738.7,152,4245.7,4058.6,5719.1
-8815.4,-7687,-9664.1,-17734.7,148.7,4240.5,4060.7,5708.6
-8817.6,-7687.8,-9665.1,-17729.1,152.7,4245.5,4056.9,5713.1
-8821.7,-7692.8,-9666.4,-17729.9,156.9,4251.3,4054.2,5720.2
-8834,-7696.2,-9671.1,-17730,161.1,4258.2,4053.3,5732.6
-8838,-7703.7,-9670.4,-17730.3,162.4,4258.9,4051.6,5736.7
-8837.4,-7709.8,-9670.7,-17735.2,163.1,4258.6,4049.4,5737.1
-8836.3,-7704.8,-9670.3,-17739.7,165.2,4259.6,4049.6,5739.2
-8833.1,-7694,-9665.6,-17736.4,169,4260.9,4049.1,5742.5
-8831.8,-7683.9,-9663.7,-17731.3,169.3,4261.5,4047.7,5744
-8826.3,-7682,-9662.6,-17729.3,170.1,4262,4050.1,5744.2
-8825.3,-7682.4,-9668,-17727,174.3,4267.4,4050.5,5748.7
-8828.1,-7690.3,-9677,-17727.1,185.4,4287.3,4037.3,5772.6
-8828.5,-7689.2,-9674.6,-17730.7,184.7,4288.8,4037.7,5777.3
-8826.8,-7688.3,-9669.7,-17732.7,178.7,4280.8,4044.8,5768.5
-8826.9,-7693.5,-9668.1,-17730.2,174.9,4275.4,4047,5761.2
-8824.8,-7696.8,-9669.9,-17725.7,170.5,4272,4044.3,5752.1
-8824.4,-7690.5,-9670.7,-17725.1,169.2,4270.6,4047.7,5747.8
-8824.1,-7685.3,-9668.9,-17721.8,170.4,4269.4,4052.1,5746
-8823.1,-7684.2,-9665.1,-17718.2,168.9,4267,4055.7,5743.3
-8825.2,-7683.1,-9660.4,-17718.2,160.8,4256.7,4064.5,5732.9
-8829.3,-7688.6,-9657.2,-17715.4,157.8,4252.2,4064.4,5727.5
-8830.2,-7693.9,-9658,-17711.3,156.6,4252.9,4057.7,5727.7
-8830.9,-7693.2,-9661.2,-17713.2,154.5,4251.2,4053.3,5725.3
-8829,-7692.1,-9663.8,-17715.9,146.3,4241.3,4054.6,5710.8
-8827.4,-7696.7,-9667.7,-17713.6,145.4,4239.6,4052.3,5707
-8826.5,-7697.7,-9666,-17716.3,150.4,4244.9,4050.2,5713.1
-8824.5,-7698.9,-9664.2,-17719.8,157.2,4251.9,4048.7,5719.9
-8826.3,-7699.2,-9663,-17709.9,172.5,4268.9,4041.2,5739.6
-8828.2,-7696.5,-9661.3,-17705,176.6,4274.7,4039.7,5751.1
-8828.2,-7693.2,-9660.1,-17714.9,174.6,4272.5,4043.5,5749.6
-8828.1,-7695.8,-9662.9,-17719.5,168.7,4265.4,4046.2,5741.6
-8826.7,-7704.4,-9664.1,-17724.9,152.3,4244.1,4055.3,5715.4
-8828.1,-7703.8,-9666.8,-17722.8,146.8,4238.1,4055.6,5705.3
-8830.5,-7700.3,-9671.1,-17718.7,149.3,4242.3,4051.4,5710.5
-8832.2,-7700.2,-9669.8,-17718.8,154.5,4248.5,4051.1,5719
-8843.2,-7699.8,-9668.7,-17717.1,163.3,4257.9,4055.4,5733.3
-8844.2,-7697.1,-9665.9,-17716.7,166.4,4259.8,4056.9,5738.1
-8844.9,-7691.9,-9668.5,-17718.8,163.4,4258.6,4051.9,5737
-8842.6,-7696.2,-9667.6,-17725.9,163.1,4258.6,4050.2,5737.3
-8836.9,-7700.6,-9667.3,-17727,164.2,4259.3,4047.6,5739.3
-8838.1,-7702.3,-9669,-17724.7,163.9,4260,4045.6,5740.7
-8836.2,-7697.9,-9666.6,-17722.3,164.2,4260,4046.9,5741.5
-8835.5,-7694.2,-9665.8,-17720.3,167.5,4264.7,4045.5,5746.3
-8831.1,-7699.7,-9667.3,-17716.8,181.4,4285.3,4034,5771.6
-8827.3,-7695.9,-9663.5,-17715.2,184.7,4288.4,4037.8,5777.6
-8825.9,-7695.1,-9665,-17713.2,181.6,4281.8,4047.3,5769.1
-8827.9,-7696.4,-9669.4,-17713.1,178.9,4277.9,4050.3,5761.8
-8828.2,-7702.9,-9671.9,-17716.4,172.7,4274.2,4045.7,5752
-8830,-7700.9,-9672.2,-17719.7,166.1,4269.8,4043.2,5746.2
-8829.8,-7697.6,-9670,-17718.9,164.1,4266.6,4044.7,5743.9
-8827.8,-7696.3,-9667.3,-17716.4,163.4,4264.3,4049.2,5742.7
-8827.5,-7687.9,-9659.7,-17715.3,158.3,4255.9,4060.7,5735.3
-8825.7,-7683.2,-9655.6,-17714.1,159.2,4253,4064.4,5730.4
-8825.1,-7684,-9657.2,-17711.9,160.8,4255,4061,5731
-8827.6,-7686.5,-9659.4,-17712,159.3,4253.8,4057.9,5728.4
-8827.8,-7691.2,-9661.4,-17718.4,150.8,4244,4060.1,5713.4
-8831.1,-7696.9,-9666.4,-17722.7,146.5,4240.3,4055.7,5706.4
-8834.6,-7695.9,-9671.1,-17724.6,148,4242.3,4048.9,5710.2
-8838,-7692.9,-9677.2,-17723.1,152.2,4247.3,4044,5716.7
-8838.5,-7693.4,-9678.1,-17713.9,168.3,4264.8,4037.5,5738.1
-8835.3,-7692.5,-9675.7,-17705,176.3,4273.5,4040.3,5752.6
-8832.3,-7685.3,-9674.5,-17698.7,173.8,4272.1,4044.9,5750.9
-8833.4,-7688.6,-9671.7,-17709.5,168.7,4267.5,4049.9,5744.7
-8832.2,-7680,-9671.6,-17726.1,152.4,4246.8,4059.4,5718.6
-8833.5,-7681.3,-9676.1,-17726.1,142.7,4237.4,4054.6,5704.3
-8833.2,-7693.7,-9678.6,-17726.7,144.2,4240.6,4047.7,5708.2
-8839.7,-7693.6,-9681.7,-17720.5,146.1,4244.4,4042.9,5714.6
-8852.9,-7693.2,-9682.5,-17714.3,153.2,4252.8,4045.3,5729.3
-8846.6,-7691.4,-9675.2,-17717.1,157.8,4257.1,4048.2,5737.1
-8837.3,-7683.6,-9670.4,-17723.2,158.5,4259.3,4046.3,5739.2
-8830.3,-7684.7,-9669.2,-17720.5,159.9,4260.8,4045.6,5739.4
-8830,-7684.4,-9675.3,-17712.9,160.2,4261.1,4044.4,5740
-8829.2,-7685.9,-9678.7,-17712.5,158.6,4260.6,4041.9,5739.7
-8831.7,-7689.1,-9679.1,-17715,156.8,4258.7,4040.9,5737.9
-8832.1,-7690.5,-9677.5,-17717.9,156.7,4260.5,4036.1,5740.4
-8831,-7693.9,-9675.5,-17715.9,167.7,4277.8,4022.6,5763.3
-8832,-7688.7,-9665.7,-17710.8,170.9,4279,4027.5,5768.3
-8829,-7684.1,-9655,-17710.1,170.2,4273.6,4039.4,5760.8
-8825.4,-7682.3,-9650.6,-17708.9,171,4271.5,4046.7,5754.8
-8824.5,-7688.7,-9658.1,-17707.9,167.3,4269.3,4045.6,5744.9
-8825.6,-7692.3,-9664.6,-17710.5,163,4265.4,4046.2,5737.9
-8829.2,-7694.8,-9668.8,-17714.6,160.2,4261.5,4046.5,5734.4
-8832.5,-7694.5,-9670.8,-17716.7,156.4,4256.9,4046.8,5731.2
-8835.2,-7685.7,-9667.1,-17714.5,148.8,4246.1,4054.4,5722.1
-8834.5,-7678.7,-9662,-17712.2,148.9,4243.5,4055.8,5719.3
-8833.4,-7677.5,-9659.7,-17711.5,151.8,4247.3,4053.7,5723
-8827.5,-7677.8,-9654.1,-17709.6,153.5,4249,4054.8,5723.8
-8825,-7679.2,-9653,-17710.7,147.4,4241.2,4059.7,5709.8
-8833.2,-7682.4,-9664,-17710,145.3,4239.9,4056.5,5704.9
-8838.3,-7684.4,-9672.1,-17712.3,147.5,4243.7,4049.5,5708.7
-8843.1,-7689.7,-9678.4,-17713,149.9,4247.9,4040.6,5713
-8847.8,-7693.3,-9679.3,-17706.3,163,4262,4029.8,5732
-8847.5,-7686.6,-9675.5,-17709.5,169.4,4269.5,4031.9,5747.3
-8845.2,-7679.5,-9671.5,-17710.4,167.8,4268.7,4037.8,5747.4
-8843.4,-7674.9,-9664.8,-17708.2,165.6,4264.5,4045.8,5742.3
-8839,-7674.2,-9661.6,-17713,151.8,4244.9,4058.7,5716.3
-8836.5,-7674.7,-9669.4,-17713.9,144.9,4237.7,4058.7,5702.2
-8842.3,-7675.2,-9675.8,-17713.6,144.7,4239.9,4050.7,5703.8
-8849.8,-7686.5,-9679,-17716.4,147.7,4244.5,4047.1,5710.9
-8861.9,-7692.7,-9683.7,-17718.5,151.3,4251.1,4045.5,5723.7
-8861.9,-7686.3,-9682.1,-17716.1,151.9,4252.3,4043.6,5728.5
-8858.5,-7682.5,-9679.2,-17713.4,153,4253.8,4042.8,5730.9
-8853.2,-7681.5,-9674.5,-17709.1,155.8,4256.5,4043.8,5734
-8847.2,-7675.7,-9669.6,-17701.6,159.2,4259.5,4044.4,5737.7
-8847.2,-7676.4,-9669.8,-17702.4,160.8,4262,4045.2,5739.2
-8846.1,-7683.7,-9670.7,-17706.3,161.8,4263,4047.5,5738.7
-8846.3,-7689.2,-9676.9,-17711.8,162.9,4265.7,4043.7,5740.8
-8846.8,-7693.9,-9686.5,-17713,172,4283,4026.6,5763.5
-8847.3,-7687.2,-9683.4,-17715.5,173.5,4284.8,4027.2,5769
-8848.4,-7677.2,-9676.7,-17714.4,169.7,4277.8,4035.3,5761.6
-8845.5,-7672.3,-9674.4,-17712,169.8,4275.5,4041.8,5757.2
-8840.1,-7673.4,-9676.1,-17714.1,169.1,4275.7,4043.8,5750.7
-8838.4,-7679.9,-9676.7,-17709.2,166.8,4274,4046.5,5746.1
-8838.8,-7677.6,-9680.1,-17707,166.2,4272.4,4049.8,5743.6
-8842.9,-7677.2,-9684,-17708.6,161.9,4268.2,4051.6,5739.4
-8845.8,-7680.5,-9683,-17706.9,152.2,4256.2,4059.1,5728.8
-8848.2,-7678.9,-9683.5,-17710.4,149.7,4250.4,4058.5,5722.8
-8849.8,-7679.9,-9685.3,-17714.7,151.1,4251.3,4054.3,5724.6
-8845.9,-7679.7,-9681.9,-17710,152.6,4252,4053.5,5725
-8839.9,-7679.5,-9677.2,-17709.4,146.4,4243.2,4057.3,5710.1
-8838.1,-7678.4,-9675.9,-17705,146.1,4242.5,4056.6,5705.3
-8838.6,-7679.9,-9680.6,-17700.7,147.9,4246.4,4051.3,5709.4
-8839.9,-7683.9,-9688.2,-17700.1,150,4250.6,4044.8,5712.5
-8845,-7685.1,-9692.1,-17699.4,163.4,4265.8,4034.2,5731.4
-8844.6,-7682.5,-9692.4,-17704.3,167.6,4271.9,4032.1,5744.8
-8843.3,-7682,-9690.7,-17704.3,162.9,4268.5,4033.9,5743
-8841.5,-7681,-9686.7,-17704.8,157.8,4263,4038.1,5737.6
-8837.9,-7674.5,-9687.5,-17708.9,144.7,4243.3,4050,5712.1
-8836.5,-7673.5,-9691,-17704.5,142.3,4238.7,4054.1,5702.2
-8836.7,-7672.2,-9692.7,-17699.9,146.1,4243.3,4050.1,5706.7
-8842.2,-7673.9,-9694.6,-17702.3,150.3,4247.8,4047.4,5712.1
-8852.2,-7681.4,-9697.1,-17704.2,155.9,4255.3,4047.6,5724.2
-8854.2,-7682.3,-9698.5,-17705.4,154.8,4255.9,4044.6,5727.7
-8853.5,-7686.8,-9700.8,-17707.8,153.3,4255.1,4041.1,5727.8
-8848.9,-7684.1,-9698.3,-17706,152.7,4254.4,4039.5,5728.6
-8841.6,-7678.8,-9692.6,-17700.5,155.1,4256.2,4040.4,5732.6
-8840,-7676.7,-9694.2,-17697.5,156.7,4258.3,4041.3,5735.2
-8837.4,-7673.3,-9694.8,-17693.6,158.9,4259.9,4045.1,5735.7
-8835.3,-7678.2,-9697.2,-17695.7,162.9,4265.7,4045,5740.6
-8835.1,-7689.6,-9702.7,-17699.9,175.2,4286,4031.4,5765.2
-8836.5,-7685.9,-9699.6,-17701.4,176.5,4287.9,4031.7,5770.7
-8836.9,-7686.2,-9693.9,-17704.3,170.4,4280.3,4038.3,5761.5
-8835.4,-7687.7,-9691.9,-17708.5,165.5,4274.3,4039.6,5753.6
-8831.1,-7692.5,-9691.3,-17707,162.8,4271.6,4038.9,5745.7
-8827.9,-7691.1,-9688.9,-17707.1,160.3,4269.1,4041,5741
-8828,-7682.1,-9686.6,-17702.6,159.4,4267.3,4043.7,5739.2
-8828.4,-7675.2,-9684.1,-17698.1,159.3,4265.8,4048.7,5737.9
-8830.9,-7675.9,-9682.1,-17697.8,154.4,4256.7,4059.6,5729.3
-8831.9,-7681.3,-9682.5,-17698.1,152.6,4251.7,4060.1,5723.4
-8832.5,-7686,-9687.4,-17699,151.3,4251.7,4053.1,5722.9
-8835.9,-7683.4,-9694,-17698.7,148.6,4250.3,4048.7,5722
-8834.1,-7682.5,-9695,-17702.7,142.7,4241.2,4052.4,5708.4
-8833.2,-7683.2,-9696.4,-17702.8,142.1,4239.9,4051.2,5704.3
-8832.1,-7690,-9694.2,-17707.5,147.8,4245.8,4050,5711.6
-8830.9,-7691.5,-9691.5,-17711.7,154.2,4252.2,4047.5,5717.9
-8830.8,-7688.1,-9692.8,-17703.4,169.4,4268.3,4039.6,5736.7
-8830.9,-7684.9,-9694.7,-17694.4,173.5,4273.6,4037.5,5747.6
-8829.4,-7682.5,-9693.2,-17705.5,171.7,4271.8,4041.2,5745.7
-8830.6,-7685,-9692.8,-17712.9,164.9,4264.9,4043,5738.2
-8832.3,-7686,-9696.8,-17712.3,147,4243,4050.6,5712.1
-8834.5,-7684.8,-9701.8,-17705,140.3,4236.1,4050.2,5700.5
-8835.2,-7691.1,-9700.9,-17705,145.1,4241.5,4048.3,5706.7
-8837.8,-7691.1,-9701.8,-17702.1,149.8,4247.4,4046.8,5714.4
-8846.8,-7687.7,-9698,-17693.6,156.1,4255.4,4049,5727.6
-8845.9,-7688,-9694,-17691.1,156.5,4257.2,4048.3,5731.7
-8842.7,-7689,-9696,-17694.7,154.1,4256.5,4044.1,5731.1
-8841.2,-7688.3,-9698.6,-17696.1,151.2,4254.4,4039.2,5728.7
-8837.9,-7685.8,-9697,-17692.5,149,4252.8,4033.2,5728.5
-8837.4,-7685.7,-9694.9,-17696.2,149.8,4253.4,4031.9,5730
-8840.8,-7679.3,-9693.3,-17697.6,152.3,4254.8,4035.3,5731
-8841.4,-7680.1,-9690.9,-17697,156.6,4260.2,4035.5,5736.8
-8837.5,-7686.2,-9690.7,-17689.1,170.2,4281.7,4023.6,5763.1
-8834,-7687.8,-9684.7,-17689.6,173.8,4285.7,4026.1,5769.9
-8832.5,-7687.1,-9680.3,-17691.7,169.3,4279.2,4033.5,5761.1
-8832.8,-7686.7,-9681.6,-17690.1,164.9,4273.6,4036,5752.5
-8830.9,-7694.1,-9687.2,-17693.2,158.6,4268.6,4031.8,5741.8
-8832.2,-7697.7,-9691,-17695.5,154.1,4264.5,4031.5,5735.5
-8836.1,-7689.1,-9689.9,-17690.8,153.3,4261.5,4033.3,5733
-8836.8,-7683.2,-9686.5,-17686.3,150.4,4257.9,4036,5730.3
-8833,-7678.5,-9679.8,-17689.2,144.4,4248.6,4047.2,5722.1
-8832.2,-7674.7,-9674.1,-17689,147.3,4247.8,4053.3,5719.9
-8833.5,-7672.9,-9676.3,-17688.8,149.7,4250.6,4050.6,5721.2
-8835.3,-7674.1,-9679.3,-17692.1,148.8,4250.4,4048.3,5719.2
-8834.7,-7677.1,-9681.8,-17698.3,140.3,4240.6,4049.7,5703.5
-8839.1,-7683.9,-9688.7,-17700.6,137.3,4238.2,4046.5,5697.9
-8842.3,-7685.8,-9693.2,-17699.4,139.2,4241.1,4040.9,5702.7
-8843.7,-7688,-9692.1,-17700.4,144.1,4246.9,4037.2,5709.8
-8845,-7684.2,-9689.1,-17695.5,159.8,4264.1,4030.4,5730.6
-8845,-7677.1,-9684.1,-17691.4,167,4271.7,4032.3,5744.4
-8844.6,-7671.1,-9683.1,-17688.4,167.4,4271.5,4039,5744.1
-8847.5,-7672.8,-9687.2,-17690.5,163.3,4266.6,4044.3,5738.2
-8849,-7672.5,-9691.3,-17695.6,147.5,4246,4054.1,5712
-8851.5,-7679.9,-9697,-17697.7,140,4238.5,4052,5699.7
-8853.3,-7684.7,-9698.6,-17701.1,139,4240,4043.1,5702.1
-8853.3,-7687.3,-9701.6,-17697.9,140.4,4243.4,4038.2,5708.6
-8858.8,-7692.6,-9696.8,-17691.2,147.6,4251.5,4040.4,5723
-8856,-7684.2,-9688.7,-17696,151.3,4254.7,4042.1,5728.3
-8849.3,-7676.9,-9684.2,-17698,153.5,4256.6,4043.3,5730
-8844.4,-7677.7,-9684.6,-17697.1,153.7,4256.8,4042.4,5729.5
-8839.3,-7680.5,-9685.6,-17693,155.5,4257.9,4040.7,5730.9
-8840.6,-7683.3,-9689.1,-17692.9,153.1,4257.4,4037,5731.1
-8840.6,-7683.9,-9689,-17696.2,150.8,4256.3,4035.6,5729.9
-8839.1,-7685.1,-9689.8,-17699.1,151,4258.7,4030.8,5733
-8835.3,-7690.9,-9688.2,-17696.8,163,4277.8,4016.8,5758.5
-8832.2,-7684.1,-9680,-17694.3,167.2,4282.3,4019.8,5767
-8832.1,-7669.5,-9673.9,-17694.3,164.6,4276.3,4029.9,5760
-8823.8,-7673.4,-9665.7,-17695.1,164.7,4273.2,4037.9,5753.6
-8821.7,-7682.5,-9670.4,-17696.7,161.8,4271.4,4038.8,5744.4
-8821.1,-7683.3,-9677.3,-17697.7,157.3,4268.1,4039.3,5737.6
-8823.1,-7683.1,-9682.1,-17698.2,153.6,4264.3,4039.2,5733.9
-8828.3,-7687.3,-9682.8,-17701.9,149.2,4259.7,4039.5,5730.5
-8830.8,-7680,-9677.1,-17703.5,142.8,4249.3,4048.6,5721.3
-8832.3,-7676.4,-9672.1,-17700.7,145,4246.3,4053.3,5718.3
-8833,-7677.2,-9669.8,-17698.9,149,4249.5,4052.5,5721.6
-8829.9,-7676,-9664.1,-17697.5,150.8,4251.1,4053.8,5722
-8825.7,-7680.4,-9661.5,-17697.3,143.7,4242.6,4057.6,5707
-8828.2,-7684,-9668.9,-17695,138.8,4238.9,4053,5699.9
-8832.3,-7687.3,-9675,-17697.4,140,4241.3,4047,5703.3
-8836.1,-7691.3,-9679.2,-17703.8,142.9,4245.6,4040.7,5708.5
-8840.1,-7690.2,-9680.6,-17704.9,156.7,4261.1,4030.6,5728.6
-8837.2,-7688.7,-9674.7,-17702.4,163.7,4268.6,4030.8,5743.4
-8833.5,-7685.6,-9670.1,-17697.1,163,4266.9,4035.7,5742.8
-8831.2,-7684,-9666.7,-17695.1,160.9,4262.4,4042.3,5737.1
-8826.1,-7679.9,-9663.8,-17701.6,148.9,4243.4,4054.8,5711.9
-8826.4,-7685.7,-9669.2,-17703.9,143.1,4237.5,4054.9,5700.4
-8830.2,-7691.9,-9676.1,-17703.8,144.3,4240.8,4048.9,5703.9
-8837.3,-7695.5,-9682.4,-17703.5,144.9,4243.4,4042.3,5708.5
-8850.3,-7697.2,-9688.6,-17699.7,148.1,4249.5,4040.3,5721
-8848.8,-7695.7,-9688.6,-17701.2,151.7,4252.3,4041.5,5727.5
-8843.3,-7692.4,-9689.4,-17704.8,154.1,4253.9,4041.6,5730.4
-8839.7,-7686.9,-9689.4,-17697.7,155.3,4254.7,4041.8,5731.7
-8831.5,-7682.4,-9681.3,-17693.4,158.9,4257.4,4043.6,5734.9
-8830.6,-7683.5,-9677.2,-17691.3,159.5,4259.4,4043.2,5736.3
-8833.8,-7685.9,-9678.4,-17693.7,157.2,4258.3,4041.4,5733.4
-8835.9,-7694.5,-9679.7,-17696.9,157.8,4261.4,4037.5,5736
-8834.2,-7703.9,-9686.6,-17700.2,167.9,4280.1,4022.5,5760.2
-8835.5,-7698.9,-9685.6,-17699.2,169.2,4281.5,4022.4,5765.5
-8837.2,-7692.8,-9680.1,-17694.9,166,4274.8,4031.4,5758
-8834.1,-7690.8,-9674.8,-17696.2,166.1,4272.6,4038.9,5752.9
-8830.5,-7691.7,-9676,-17697.9,164.9,4272.1,4040.8,5745.6
-8827.1,-7692.1,-9674.4,-17698.1,164.3,4271.1,4045,5740.5
-8828.3,-7691,-9677.8,-17698.2,161.9,4268.1,4045.9,5736.1
-8830,-7689.4,-9678,-17703,159,4264.9,4048,5732.9
-8835,-7689.2,-9682.5,-17706.8,152.6,4254.2,4056.8,5723
-8838.3,-7690.1,-9688.8,-17706.1,150.7,4248.7,4055.9,5717.1
-8842.2,-7692.1,-9693.9,-17700.4,152.4,4250.2,4051.6,5720
-8841.9,-7691.5,-9690.9,-17697.5,155.7,4252.1,4052.4,5722
-8835.7,-7689.6,-9682.5,-17703.6,149.9,4244.6,4056.7,5708.8
-8835.1,-7690,-9679.1,-17708.2,151,4244.9,4057,5705.4
-8837.2,-7689.5,-9679.3,-17706,154.5,4249.2,4053.1,5709.8
-8841.5,-7693.5,-9680.8,-17707.5,157,4253,4046.5,5713.1
-8844.6,-7698.5,-9683.4,-17705.6,170.4,4268.4,4037,5731.9
-8845,-7701.5,-9683.5,-17706.2,174.3,4273.9,4035.1,5743.9
-8846.3,-7696.3,-9683.5,-17707,169.6,4270.4,4036.6,5741.4
-8843.7,-7694.6,-9681.8,-17708.2,164.9,4264.4,4040.8,5735.6
-8836.8,-7694.6,-9672.4,-17714.1,151.1,4245,4052.8,5711.5
-8840.1,-7690.9,-9673.7,-17707.7,147.2,4239.6,4055.2,5701.8
-8839.9,-7691.9,-9678.2,-17702.9,151.4,4244.5,4052.5,5706.4
-8841.1,-7696.5,-9682.4,-17701.7,154.6,4249,4048.9,5712.1
-8851.4,-7699.5,-9685.8,-17702.1,158.2,4256.1,4047.5,5724.1
-8854.2,-7700.4,-9686.3,-17703.5,158.1,4256.9,4044.8,5728.2
-8854.8,-7702.4,-9689.1,-17705,155.8,4255.7,4040.3,5727.5
-8853.6,-7697.1,-9685.1,-17706.1,154.7,4254.9,4038.3,5727.9
-8846.3,-7690.9,-9678.1,-17706.8,157.4,4256.9,4038.7,5731.8
-8841.1,-7689.3,-9675.6,-17703,161,4260.1,4041.3,5735.9
-8837.4,-7685,-9674.8,-17699.6,162.3,4261.6,4044.4,5736.6
-8836.6,-7683.2,-9678.4,-17697.1,163.8,4265.1,4042.1,5739.6
-8837.6,-7686,-9686.9,-17691.6,173.9,4283,4026.5,5761.7
-8836.4,-7691,-9684.5,-17695,177,4285.6,4029.3,5767.7
-8835.3,-7688.8,-9681.8,-17704.7,172.9,4277.4,4036.6,5759
-8837,-7687.9,-9683.9,-17703.3,168.6,4271.6,4038.9,5751.2
-8836,-7688.6,-9686.7,-17700.8,165.3,4269.1,4038.1,5743.4
-8834.1,-7687.7,-9685.6,-17698.3,161.3,4265.6,4038.7,5737.9
-8832.4,-7685.9,-9682,-17693.9,162.3,4264.9,4044.1,5737.4
-8830.8,-7682.3,-9680.3,-17690.6,162.3,4263.6,4049.7,5736.3
-8832.8,-7678.7,-9678,-17688.7,155.6,4253.4,4058.8,5726.5
-8834.5,-7679.1,-9675.5,-17692.2,153,4247.8,4057.6,5719.6
-8836,-7686.2,-9675.8,-17696.5,153.8,4249.5,4052.2,5720.5
-8838.5,-7690.4,-9679.3,-17699.8,152.6,4249.4,4048.6,5720.6
-8836.1,-7691.9,-9675,-17702.9,144.9,4240.6,4050.2,5707.1
-8838.1,-7692.4,-9672.8,-17701.2,143.4,4238.4,4048.3,5702
-8840.3,-7690.6,-9673.3,-17697.3,147.6,4242.7,4046.5,5708.1
-8840.7,-7689.8,-9672,-17697,153.9,4249.4,4044.5,5714.7
-8844,-7689.3,-9670.2,-17694.5,169.1,4266.6,4037.4,5734.3
-8845.2,-7687.7,-9669.8,-17691.3,174.3,4273.1,4036.8,5746.8
-8841.6,-7691.6,-9669.7,-17697.3,171.5,4270.2,4039.5,5744.5
-8840,-7689.2,-9673.4,-17705.4,165.1,4263.8,4041.9,5736.7
-8840.2,-7686.2,-9679.6,-17708.7,147.7,4242.4,4050.3,5710.3
-8842.1,-7688.6,-9684.9,-17702.8,142.7,4236.5,4051.3,5700.4
-8843.2,-7690.5,-9687.2,-17695.7,145.4,4240.3,4046.6,5704
-8843.4,-7691.6,-9683.4,-17691.6,148.8,4245.3,4043.6,5710.5
-8853.2,-7689.7,-9678.6,-17685.7,156.4,4254,4046.9,5724.1
-8855,-7689.3,-9674.2,-17685.3,158.5,4256.3,4046.6,5727.9
-8853.8,-7688.5,-9674.1,-17687.7,156.6,4255.5,4042,5726.8
-8850.6,-7689.7,-9672.2,-17689.8,155.5,4254.8,4039.7,5725.6
-8849.3,-7690.3,-9670.1,-17690.2,155.9,4254.9,4037.9,5726.9
-8847.6,-7687.4,-9671.9,-17692.1,156.5,4256.1,4036.8,5729.1
-8844.8,-7684.8,-9671.6,-17690.2,158.2,4257.1,4039.4,5730.4
-8843,-7685.1,-9670.2,-17689.4,162.9,4262.7,4040,5736.8
-8838.5,-7688.7,-9670.5,-17687.1,177.7,4284.4,4029.9,5763.4
-8832.1,-7682,-9663.2,-17688.4,185,4289.6,4036.7,5772.7
-8831,-7679.4,-9656.8,-17686.4,182.8,4284.3,4047.2,5766.4
-8831.2,-7680.3,-9659.4,-17682.3,177.6,4279.4,4048.1,5759.6
-8833.5,-7689.1,-9674.5,-17688.8,167.7,4272.8,4039.8,5747.7
-8837.1,-7684,-9680,-17696.3,162.5,4267.6,4039.1,5741
-8836.8,-7686.9,-9677.9,-17697.3,160.9,4264,4040.8,5738.5
-8835.4,-7693,-9674.6,-17699.3,160,4262.1,4044.8,5737.5
-8835.7,-7685.3,-9667.5,-17694.8,155.7,4252.9,4056.5,5729.6
-8835.5,-7678.3,-9664.4,-17688.3,157.3,4250.6,4061.6,5726.2
-8837.4,-7683.5,-9667.7,-17689.5,156.8,4251.8,4056.6,5726.4
-8840,-7688.5,-9672.3,-17692.3,153,4249.6,4051.2,5722.7
-8839.9,-7690.5,-9676.5,-17697.2,142.4,4238.9,4050.4,5705.7
-8841.9,-7694.6,-9683.7,-17702.6,137.2,4235.4,4044.9,5698.7
-8846.2,-7694.6,-9689.8,-17702.8,137.9,4237.2,4037.9,5702.3
-8849,-7689.7,-9693.6,-17700.5,140.7,4241.6,4032.2,5707.4
-8851.4,-7686.6,-9692.1,-17696.5,156.1,4258.7,4025.3,5727.9
-8851,-7675.8,-9686.9,-17691.5,162.4,4265.9,4025.8,5741.2
-8845.7,-7669.9,-9682.3,-17690,160.4,4264,4029.7,5738.6
-8844.5,-7673.3,-9682.9,-17693.1,156.8,4258.4,4033.8,5730.9
-8842.8,-7673.5,-9684.7,-17699.3,139.8,4236.6,4041.1,5703.4
-8841.1,-7675.9,-9687.4,-17700.8,131.1,4228.3,4038.1,5689.5
-8847.5,-7677.3,-9693.8,-17699.4,130.7,4230.6,4030.3,5692.1
-8855,-7676.5,-9698.2,-17695.4,132.1,4233.8,4025.8,5698.4
-8864.5,-7673.4,-9696.9,-17694.6,137.8,4241.7,4027.4,5712.1
-8860.2,-7663.2,-9688.4,-17700.9,141.3,4244.5,4029.7,5717.2
-8855.1,-7656.2,-9682.5,-17697.6,142.3,4245.3,4029.7,5717.5
-8853.7,-7654.8,-9681.6,-17690.7,141.7,4245.1,4028.3,5716.7
-8848.6,-7652.3,-9681.4,-17688.7,141.3,4245,4024.6,5716.1
-8848.9,-7652.6,-9682.5,-17689.7,139.8,4245.1,4021.2,5715.5
-8851.8,-7649.4,-9686.6,-17692.2,136.6,4243,4018.3,5712.8
-8855.2,-7645.8,-9689.6,-17693.2,138.1,4245.9,4014.5,5716.7
-8854.6,-7646.1,-9695.7,-17688.7,150.3,4265.3,3999.4,5741.8
-8846.8,-7638.5,-9690.3,-17688.8,153.8,4269.6,4000.6,5749.5
-8844.3,-7626,-9680.4,-17689.1,151.9,4264.6,4011.4,5742.4
-8842,-7615.9,-9673.7,-17686,150.1,4260.1,4017.9,5734.6
-8840.5,-7616.7,-9676.2,-17685,143.6,4254.7,4015.1,5722.1
-8840.8,-7616.9,-9678.8,-17685.9,137.4,4248.5,4013.8,5712.3
-8844.9,-7612.8,-9681,-17687.4,134.2,4242.5,4012.9,5706.6
-8847.1,-7611.1,-9683.2,-17686.5,130,4236.8,4012.3,5702.5
-8847.8,-7598.4,-9680.8,-17688,122.6,4225.8,4019.9,5692.8
-8844.5,-7591.3,-9675.3,-17686.3,121.4,4221.6,4020.6,5687.5
-8840.7,-7590.1,-9671.8,-17683.4,124.3,4225.1,4019,5690.9
-8837.2,-7588.1,-9668.6,-17676.3,125.7,4226.5,4019.5,5691.3
-8833.9,-7588.2,-9668.1,-17671.6,118.2,4217.6,4022.1,5676
-8833.3,-7590,-9670.7,-17678.3,114.9,4215,4017.8,5669.4
-8835.1,-7590.6,-9676.2,-17681.6,114.7,4217.1,4010.7,5672.5
-8839.3,-7587.8,-9683.2,-17678.5,113.9,4218.7,4001.8,5674.4
-8840.2,-7591.7,-9682.5,-17676,126.7,4232.7,3991.2,5692.6
-8837.4,-7586.7,-9680,-17672.9,132,4239.1,3990.5,5706.5
-8833.3,-7578.3,-9677.4,-17669.8,130.9,4237.8,3995.9,5706
-8828.6,-7571.9,-9673.7,-17665,127.9,4233.4,4002.1,5700.7
-8827.5,-7564.1,-9669.3,-17669.2,112.4,4213.3,4012.5,5675
-8827.2,-7571.5,-9669.9,-17672.1,106.9,4206.9,4013.6,5663
-8828.1,-7582.3,-9674,-17674,108.6,4211.2,4008.2,5666.8
-8835.4,-7582.6,-9680.4,-17672.1,107.7,4214.3,4001.3,5672.2
-8846.6,-7581.7,-9685.7,-17673.8,110.4,4219.9,3999.7,5684.3
-8845.2,-7579.7,-9682.6,-17677.6,112.7,4221.6,3999.7,5690.1
-8840.5,-7577.8,-9679.1,-17679.6,115.4,4223.1,4000.3,5692.7
-8836,-7573.8,-9672.3,-17675.9,118.7,4225.1,4002.2,5694.8
-8829.5,-7572.8,-9663.7,-17668.9,122,4227.4,4003.7,5697.7
-8828.1,-7575,-9664.8,-17666.2,122.1,4228.8,4002.9,5698.1
-8827,-7572.7,-9664.3,-17668.2,120,4228.1,4002.2,5696.6
-8827,-7575.6,-9666.9,-17669.1,119.9,4230.5,3997.8,5698.6
-8829.2,-7584.3,-9678.5,-17669.8,130.5,4249.1,3982.3,5721.9
-8829.2,-7579.9,-9679.1,-17672.8,133,4251.5,3982.7,5728.8
-8824.6,-7570.2,-9673.2,-17672.9,129.8,4245.3,3992.2,5722.2
-8820.7,-7564.4,-9667.4,-17668.9,128.7,4242.4,3997.6,5717.2
-8817.7,-7563.7,-9666.7,-17664.9,125,4240.3,3996.7,5708.3
-8815.8,-7561.3,-9662.1,-17666.8,123.2,4238,4000.2,5702.8
-8816.7,-7562.4,-9665.1,-17666.2,122.8,4236.2,4003.6,5700.5
-8818.6,-7560.7,-9670.4,-17669.1,118.7,4232.6,4005.3,5696.5
-8821.3,-7555.6,-9668.9,-17672.8,108.9,4221.1,4012.4,5685.5
-8823.5,-7556.6,-9668,-17672.5,105.2,4214.7,4011.1,5678
-8827,-7560.5,-9665.3,-17672.2,107.5,4216.7,4007.9,5680.3
-8826.3,-7557.9,-9663.5,-17667.9,107.5,4216.4,4006.3,5680
-8821.2,-7554.8,-9660.2,-17671.7,103.8,4208.4,4013.1,5666.5
-8821,-7557.3,-9658.3,-17671.6,105.4,4208.3,4015.9,5662.5
-8824,-7564.2,-9660.3,-17667,109.3,4212.9,4013.4,5667.1
-8830,-7562.7,-9668.4,-17665.6,111.7,4217,4007.1,5670.8
-8835,-7566.2,-9675,-17665.1,126.4,4232.8,3998.4,5689.8
-8834.1,-7568.6,-9680.6,-17663.5,132.4,4239.5,3997.4,5703.4
-8832.8,-7561.8,-9684.2,-17661.8,128.5,4235.5,3998,5700.6
-8829.8,-7561.5,-9678.5,-17661.1,123.6,4229.3,4001.9,5694.1
-8825.2,-7559.9,-9668.6,-17667.2,108.8,4210,4013.6,5669.4
-8822.3,-7558.1,-9664.2,-17666.2,103.5,4205.3,4015.8,5658.9
-8822.6,-7559.1,-9665.7,-17663.3,107.9,4210.8,4013.7,5664.1
-8829.1,-7561.7,-9673.9,-17662.3,112.8,4217.1,4012.6,5672.4
-8839.9,-7563.3,-9680.2,-17661.1,118.4,4225,4013.2,5686.6
-8844.1,-7567,-9675.4,-17660.2,119.1,4224.9,4010.7,5689.6
-8841,-7567.3,-9671.3,-17663.5,116.7,4222.7,4005.3,5688.4
-8838.7,-7567.7,-9671.6,-17665.1,117.5,4222.5,4004.8,5689.9
-8832.4,-7563.9,-9666.1,-17661.7,120.5,4224.3,4005.2,5693.7
-8828.2,-7560.7,-9665.3,-17661.7,123.5,4227.5,4006.8,5697.3
-8824.6,-7559.6,-9664.2,-17654.1,126.2,4229.4,4011.2,5698.7
-8824.8,-7563.2,-9667.5,-17649.9,128.4,4234.3,4009.8,5702.9
-8825.2,-7566.9,-9674.2,-17655.4,139.6,4255,3994.9,5728.1
-8824.4,-7564.6,-9672.9,-17657.1,140.5,4258.9,3992.3,5735.5
-8826.3,-7561.6,-9675.8,-17654.4,134.4,4251.5,3997.4,5727.3
-8825.7,-7563.5,-9676.9,-17648.2,129.7,4245.8,4000.1,5720.2
-8824,-7568.7,-9678.8,-17646.4,126.5,4242.8,3999.7,5712.5
-8824.2,-7562.8,-9676.1,-17645.1,123.1,4239.7,4001.6,5707.4
-8825,-7554.5,-9665.2,-17646.8,122.8,4238.1,4006,5705.8
-8825.5,-7548.9,-9654.5,-17648.4,121.5,4235.7,4011.1,5703.2
-8824.5,-7553.8,-9652.3,-17648.6,116.7,4227.3,4021.8,5694.6
-8825.6,-7555.6,-9659.5,-17645.2,114.6,4222.8,4022,5688.5
-8827.3,-7560.5,-9666.7,-17646,114.9,4224.2,4017.2,5689.9
-8829.5,-7564.5,-9668.9,-17647.7,114.2,4223,4013.9,5688.9
-8827.4,-7564.7,-9667.2,-17652.7,106.7,4213,4016.5,5673.8
-8826.6,-7566.6,-9666.9,-17653.3,105.6,4210.7,4015.7,5669.3
-8826.6,-7569.1,-9670.4,-17649.4,111,4215.4,4014.3,5675.5
-8826.9,-7567.4,-9671.2,-17655.6,118.3,4222.1,4013.1,5682
-8830,-7565,-9669.2,-17654.3,134.4,4239.2,4006.3,5702.1
-8829.7,-7561.7,-9667.5,-17650.6,139.7,4245.6,4005.7,5714.4
-8829.5,-7562.2,-9664.9,-17650.7,136.1,4242.4,4008.4,5711.3
-8830.9,-7568,-9662.3,-17653.9,130.3,4235.7,4011.6,5703.9
-8830.6,-7572.5,-9660.4,-17663.4,115.4,4215.2,4022,5678.8
-8832.8,-7579.6,-9662.7,-17669.5,111.6,4210.3,4023.8,5669.2
-8835.3,-7584.2,-9663.9,-17662.9,115.7,4214.5,4020.3,5673.7
-8838.9,-7582.6,-9666.5,-17657.2,121,4220.5,4018.8,5682.4
-8848.1,-7582.7,-9668.5,-17653,128.9,4230.2,4022.3,5696.8
-8846.6,-7582.4,-9667.9,-17653.3,131.4,4233.2,4023.1,5701.4
-8846.1,-7584.1,-9671.5,-17658.6,131.7,4233.9,4021.1,5701.3
-8842.3,-7591.1,-9670.4,-17665.7,132,4233.9,4019.2,5701.4
-8837.4,-7594,-9668.2,-17668.2,133,4234.5,4016.9,5703.7
-8838.3,-7596.2,-9671.1,-17669.9,134.6,4236.4,4017,5706.2
-8836.7,-7597.7,-9670.3,-17669.7,137.4,4238.6,4020.6,5708.2
-8836.1,-7597.9,-9671.5,-17667.1,141.2,4243.8,4019.5,5714.2
-8831.9,-7603.7,-9676.9,-17661.3,155.6,4266.4,4008.2,5741.2
-8829.9,-7601.4,-9675.3,-17658.4,158.4,4270.4,4010.3,5748.3
-8830.1,-7600.2,-9671,-17661.1,153.6,4263.8,4018.7,5739.6
-8831.8,-7598.3,-9669.9,-17663.9,149.2,4259.9,4022,5732.5
-8834.6,-7603.7,-9675.2,-17668.8,143.7,4256.5,4018.5,5722.5
-8836.1,-7606.9,-9679.7,-17672.8,139.4,4251.9,4017.8,5715.8
-8836.9,-7606.4,-9679.9,-17672.5,138.3,4249.7,4020.1,5714.9
-8837.3,-7604.8,-9676.9,-17672.6,137.2,4247.5,4024.5,5714.4
-8838.3,-7597.7,-9669.3,-17671.9,131.8,4239.2,4036.1,5706.8
-8836.1,-7594.4,-9661.7,-17667.7,132.2,4237.2,4039.7,5703.8
-8834.4,-7599.3,-9660.5,-17667.4,133.3,4239.6,4036.3,5706
-8835.6,-7603.1,-9663,-17670.8,131.4,4239.2,4033.3,5705
-8833.1,-7604,-9665.4,-17672.2,121.3,4228.7,4033.2,5688.7
-8835.7,-7610.7,-9671.6,-17671.2,115.3,4223.9,4025.8,5681.1
-8838.5,-7610.5,-9673,-17677.9,117.9,4226.9,4021,5685.7
-8840.4,-7609.6,-9673.5,-17678.4,122.1,4232.2,4016.5,5692.3
-8840.9,-7609,-9672.6,-17668.7,137.9,4248.7,4009.5,5713.4
-8837.8,-7605.9,-9672.5,-17661.6,145.8,4257.2,4012.3,5728.2
-8833.9,-7600.6,-9670.2,-17659,143.9,4255,4016.8,5726
-8832,-7598.2,-9663.9,-17664.7,137.7,4247.7,4019.1,5716.7
-8831.4,-7606,-9657.5,-17673.4,121.2,4226.6,4028.3,5689.2
-8837.2,-7613.3,-9659.9,-17677,113.7,4218.4,4026.4,5675.9
-8841.6,-7615.4,-9662.3,-17682.1,114.3,4219.5,4018.8,5677.7
-8840.9,-7629,-9662.1,-17684.6,119.9,4224.2,4017.5,5685.2
-8851,-7621.6,-9665.9,-17678.3,127.3,4232,4020.1,5699.1
-8853.4,-7619.6,-9662.2,-17673.5,132.6,4234.8,4023.7,5704.2
-8847.2,-7618.4,-9661.2,-17673,136.6,4236.6,4025.6,5705.1
-8840.5,-7621,-9660.9,-17672.4,139.7,4237.7,4026.8,5704.5
-8835.9,-7621.8,-9663.2,-17673.2,143,4239.4,4026.5,5705.6
-8835.4,-7628,-9668.9,-17671.6,145.6,4241,4027.5,5706.9
-8837.4,-7635.1,-9674.4,-17671.4,143.8,4239.8,4026,5704.7
-8841.8,-7634.8,-9677.4,-17672.1,144,4242.3,4021.3,5707.6
-8838.2,-7642.5,-9677.1,-17672.3,158.1,4262.5,4009.3,5734
-8833.9,-7636.6,-9668.1,-17676.7,164.5,4267.7,4014.3,5743.3
-8832.2,-7631.6,-9659.2,-17680.2,164.2,4263.9,4026.8,5738.3
-8833.2,-7630.2,-9658,-17676.9,162.8,4261.2,4031.9,5731.8
-8835.1,-7636.1,-9665.9,-17675.4,160.1,4259.6,4031.1,5723.3
-8836.8,-7636.2,-9670.6,-17677.5,155,4256.7,4030.7,5717.3
-8839.5,-7637.4,-9675.4,-17682.5,151.5,4254.1,4031.5,5715.3
-8842.5,-7640.4,-9679.3,-17685.1,146.9,4250.2,4032.2,5713.3
-8843,-7636.4,-9670.3,-17684.8,140,4240.3,4041.4,5705.6
-8844.9,-7634.9,-9662.1,-17681.7,139.8,4237.3,4043.4,5702.3
-8845.7,-7637.2,-9660.9,-17677.6,142.5,4240.6,4040.7,5705.6
-8841.9,-7634.2,-9659.8,-17674.6,144.4,4242.3,4041.5,5706.5
-8836.7,-7632.9,-9658.9,-17674.7,136.8,4234.2,4044.7,5692.4
-8836.2,-7639.9,-9666.1,-17675.4,132.8,4232.2,4041,5687
-8837.9,-7644.6,-9674.4,-17685.4,133.3,4234.9,4034.8,5691.2
-8842.2,-7648.2,-9685.3,-17686.5,134.4,4238.7,4027.3,5695.9
-8846.9,-7650.3,-9687.4,-17679.6,147.2,4253.8,4016.6,5716
-8844.2,-7649.2,-9680,-17677.6,152.4,4260.3,4015.7,5730.2
-8839.6,-7645.2,-9669.8,-17676.2,150.6,4258.7,4020.1,5729.3
-8834.2,-7637.4,-9666.5,-17673.4,145,4252.8,4024.4,5722.4
-8828.3,-7634.2,-9665.7,-17676.6,130,4233.1,4035.1,5696.6
-8824.6,-7642.7,-9668.1,-17678.7,124.1,4226.5,4035.4,5684.1
-8827.3,-7648.5,-9675.8,-17680.7,124.9,4229.3,4029.4,5686.6
-8833.1,-7653.9,-9682.3,-17683.5,124.8,4232.9,4023.5,5691.6
-8843.4,-7659,-9686.4,-17677.1,127.5,4238.6,4021.6,5703.3
-8844.2,-7659.2,-9687.8,-17673,127.4,4238.5,4019.8,5706.8
-8837.6,-7653.6,-9686.8,-17678.4,130.4,4240.5,4021.2,5708.8
-8832.9,-7649.6,-9686.2,-17674.9,134.2,4242.7,4023.8,5710.5
-8826.9,-7647.3,-9680.6,-17670.9,139,4245.7,4026.1,5713.3
-8825.9,-7646,-9679.7,-17668.3,140.6,4247.6,4025.9,5713.9
-8824.8,-7645.9,-9679.5,-17671.5,138.3,4245.8,4024,5710.5
-8826.6,-7651.5,-9682.7,-17674.1,138.6,4247.3,4018.4,5711.9
-8828.8,-7660.5,-9693,-17673.5,150.3,4265.6,4003.6,5735.7
-8828.4,-7661.9,-9692.8,-17679.2,154.1,4268.3,4005.6,5742.1
-8827,-7655.7,-9688.2,-17680.5,151.9,4261.7,4015.4,5734.9
-8823.5,-7655.3,-9682.3,-17677.2,152.3,4258.9,4022.5,5729.5
-8819.6,-7659.1,-9685,-17671.2,151.3,4258.5,4024.1,5722.8
-8817.7,-7660.3,-9684.9,-17672,150.8,4258.1,4028.4,5719
-8818.4,-7660.6,-9687.6,-17677.2,151.2,4257.4,4032,5717.7
-8821.2,-7661.6,-9693.5,-17679.7,147.4,4254.9,4033.8,5715.8
-8824.3,-7662.2,-9695.5,-17683.3,139.4,4244.6,4041.8,5706.9
-8828.4,-7664.3,-9697.9,-17685.9,137.1,4240.9,4042.1,5702.9
-8832.4,-7662.6,-9701.2,-17682,138.3,4244.1,4038.5,5706.7
-8829.5,-7668.7,-9697.9,-17679.5,139.2,4246.1,4039,5708.7
-8827.6,-7665.9,-9693.9,-17678.7,134.4,4239.8,4044.9,5696.8
-8827.5,-7673.8,-9695.3,-17676.2,135.6,4241.6,4046.1,5694.9
-8826.1,-7678.1,-9696.8,-17677.4,138,4246.3,4041.4,5699.6
-8829.5,-7681.3,-9698.1,-17673.5,139.5,4249.7,4034.8,5703.4
-8834.4,-7681.8,-9699.2,-17673.2,150.2,4262.6,4022.7,5720.1
-8834.3,-7679.7,-9696.3,-17687.8,154.4,4266.9,4021.4,5731.8
-8834.4,-7677.2,-9693.1,-17691.8,151.4,4263.4,4024.3,5729.5
-8833,-7671.8,-9690.1,-17684.6,146.9,4256.8,4028.6,5723.1
-8830.5,-7670,-9688.3,-17686.9,132.6,4237,4038.9,5698.5
-8828.9,-7671.5,-9689.5,-17684.2,128.6,4232.3,4040.1,5688.4
-8827.6,-7672.6,-9691,-17679.7,131.4,4237.2,4035,5693
-8829.8,-7672.7,-9694.7,-17677.8,133.7,4241.6,4031.3,5698.5
-8838.2,-7675.4,-9698,-17678.5,137.5,4248.3,4029.5,5710.1
-8839.3,-7680.5,-9698.7,-17680.1,137.7,4249.5,4027.1,5713.8
-8838.9,-7681.5,-9702.3,-17680.9,134.6,4248,4022.1,5711.9
-8835.7,-7681.9,-9698.5,-17677.2,133.9,4247.2,4021.2,5711.8
-8830.1,-7679.4,-9692.3,-17673.9,136.6,4248.7,4021.9,5714.7
-8830.6,-7672.1,-9692.2,-17669.2,137.8,4249.8,4021.3,5715.9
-8828.2,-7669.1,-9687.9,-17666,139.1,4250.6,4024.1,5715.5
-8823.7,-7673,-9687.3,-17663,141.3,4254.2,4022.1,5718.2
-8822.4,-7678.3,-9697.7,-17664.6,151.6,4271.2,4009,5738.9
-8823.6,-7675.5,-9697.1,-17671.1,154,4271.5,4014.4,5742.3
-8824.7,-7675.8,-9694.2,-17678.1,149.2,4264.1,4021.4,5734.1
-8825.8,-7673.7,-9697.1,-17677.2,145.3,4259.1,4022.2,5727.2
-8822.9,-7677.2,-9698.1,-17673.4,141.8,4256.4,4020.7,5719.1
-8821.9,-7677.3,-9697.1,-17674.2,139.1,4253.7,4022.7,5714.4
-8820.1,-7674.2,-9694.3,-17673.1,141.1,4253.6,4027.4,5714.4
-8821.4,-7671.9,-9689.2,-17667.4,140.7,4252,4031.8,5713.5
-8825.2,-7670.1,-9686.1,-17665.3,134.5,4242.8,4041.5,5704.5
-8826,-7673.1,-9690.7,-17666.1,133.1,4238.6,4041.4,5698.6
-8827.3,-7677.8,-9698.2,-17664.8,132.7,4239.8,4034.9,5699.3
-8827.2,-7682.9,-9700.4,-17673.3,132.5,4240.1,4032.6,5699.8
-8822.3,-7687.3,-9697.7,-17682.3,127.4,4232.2,4036.9,5688
-8822.2,-7690.6,-9702.9,-17682.6,126.8,4231.9,4034.8,5685.5
-8824.8,-7691.1,-9702.4,-17681.7,131.8,4237.7,4032.4,5692.1
-8825.8,-7688.4,-9703.3,-17679.5,138.3,4244.6,4031.1,5699.1
-8829.2,-7688.5,-9704.4,-17673.8,154.2,4262.3,4024.6,5719.5
-8830.3,-7689.5,-9702.8,-17673.4,158.5,4268.4,4023.3,5731.5
-8831.5,-7688,-9701.5,-17677.5,154.2,4264.8,4025.4,5728.6
-8831.7,-7686.2,-9703,-17683.8,149,4258.9,4028.8,5723
-8831.9,-7682.5,-9705.9,-17694.5,131.4,4237.1,4036,5697
-8832.8,-7688.8,-9702.8,-17697.2,126.7,4231.2,4038.3,5687
-8833.7,-7696.1,-9699.8,-17695.2,131.2,4236.8,4036.3,5692.8
-8835.6,-7690.5,-9701.6,-17692,134,4241.5,4032.9,5699.4
-8845.5,-7691.5,-9700.7,-17687.4,141.4,4249.9,4036.3,5713
-8846.1,-7690,-9700.3,-17684.2,144.2,4251.9,4037.5,5716.5
-8844,-7690.5,-9704.9,-17686.2,143.4,4251.2,4034.4,5715.5
-8841.9,-7695.4,-9704.9,-17688.7,142.1,4250.3,4031.8,5714.1
-8840.4,-7696.2,-9703.9,-17689.9,142.7,4250.5,4029.4,5715.6
-8838.7,-7690.7,-9707.5,-17689.3,142.3,4250.9,4026.8,5716.8
-8835.8,-7696.7,-9705.1,-17691.4,144.8,4252.2,4030.1,5718.2
-8835,-7689.9,-9705,-17689.4,147.9,4256.7,4028.5,5722.5
-8831.4,-7687.6,-9708.1,-17688,162.2,4277.7,4016.9,5748.3
-8829.6,-7684.7,-9703.8,-17684,165.6,4281.7,4019.9,5754.8
-8829.3,-7686.2,-9699.5,-17682.3,160.2,4273.4,4027.5,5744.7
-8828.5,-7685.8,-9701.2,-17683,156.2,4268.4,4031,5736.1
-8827.2,-7690.4,-9709.1,-17687.4,150.6,4265.1,4027.8,5725.9
-8828,-7695.6,-9710.6,-17687.6,144.2,4260.4,4025,5718
-8828.6,-7692,-9704.4,-17692.6,142.6,4256.7,4026.5,5715.6
-8825.6,-7686.8,-9701.1,-17694.3,141.2,4254.3,4030.1,5714.2
-8825.2,-7678.4,-9698.1,-17688.5,136.3,4245.9,4041.6,5705.8
-8823.8,-7675.9,-9691.3,-17684.2,137.6,4243.3,4046,5702.9
-8824.2,-7679.4,-9693.1,-17682.8,138.4,4244.9,4042.1,5704.1
-8826.9,-7678.5,-9693.3,-17685.5,137.5,4244.4,4039.4,5702.2
-8826.6,-7681.4,-9693.2,-17696,129.3,4235,4041.1,5687.2
-8829.7,-7690.7,-9699.5,-17694.6,125.5,4232,4037.4,5681.3
-8836.4,-7699.7,-9705.2,-17686.1,127.5,4235,4032,5687.2
-8838.7,-7698.7,-9705.7,-17688.5,133.5,4241.3,4029,5695
-8842.8,-7692.1,-9706.1,-17686,150.3,4259,4022.7,5716.4
-8840.5,-7688.5,-9702.1,-17682.3,157.6,4266.7,4024.6,5730.4
-8834.6,-7689.3,-9694.3,-17685.4,159,4266.9,4032.2,5730.8
-8834.1,-7686.7,-9693.7,-17691.4,154,4261,4036.1,5724
-8833.4,-7686.9,-9697.9,-17701.6,137.2,4239.5,4044.7,5697.4
-8835.8,-7689.1,-9705,-17705.3,129.4,4232.4,4042.7,5684.7
-8839.1,-7698.1,-9710.3,-17706.4,130.3,4235.7,4036.4,5688.8
-8843.5,-7701.1,-9715.1,-17705.3,134.3,4241.1,4034.7,5697.4
-8852.6,-7699.8,-9718.2,-17703.9,142,4249.8,4037.4,5712.2
-8851.9,-7696,-9716.2,-17702.7,146.6,4253.7,4039,5718.3
-8848.1,-7693.9,-9710.3,-17701,149.2,4256.6,4040.1,5720.4
-8845.3,-7694.6,-9706.6,-17697.9,148.7,4257.3,4039.9,5720
-8842.4,-7696,-9702,-17695.1,147.8,4256.2,4036.7,5719.4
-8844.3,-7700.6,-9700.8,-17696.9,146.4,4256.3,4033.6,5719.8
-8844.9,-7703.6,-9702,-17696.7,143.7,4254.8,4031.9,5717.8
-8844.7,-7705.8,-9710.1,-17697.2,143.1,4256.9,4026.2,5720.5
-8841.8,-7707.1,-9716.8,-17693.6,155.6,4276.6,4012.9,5746.1
-8838.6,-7700,-9712,-17691.1,159.8,4280.3,4016.5,5753.6
-8836.1,-7690.9,-9702.1,-17688.4,158.2,4275.1,4028,5747
-8833.5,-7686.9,-9699.6,-17685.5,157.1,4272.5,4033.3,5741.3
-8833.9,-7689.8,-9705.8,-17682.8,152.7,4269.8,4030.7,5730.9
-8834.6,-7696.9,-9706.1,-17687.7,145.8,4265.2,4029.5,5722.2
-8836.3,-7694.3,-9703.3,-17692.1,142,4260.8,4030,5717.1
-8841.3,-7690.9,-9705.3,-17692.1,137.4,4255.5,4029.9,5712.8
-8843.7,-7684.8,-9700.7,-17691.7,129.8,4244.8,4038.4,5703.8
-8842,-7685.2,-9693.7,-17689.4,130.5,4241.1,4041.7,5700.7
-8841.3,-7687.4,-9689.7,-17685.5,132.8,4243.2,4039.2,5702.8
-8837.9,-7685.2,-9684.2,-17679.6,135.2,4244.6,4039.8,5703.1
-8836.1,-7684.4,-9686.3,-17677.6,127.1,4235.4,4041.5,5687.7
-8831.5,-7693.9,-9689,-17688.6,125.3,4233.7,4039.4,5682.6
-8834.9,-7695,-9695.9,-17693.9,125.8,4236.5,4032.5,5686
-8838.1,-7698.4,-9700.7,-17696.7,127.7,4239.9,4025,5689.8
-8843.8,-7698.8,-9702.2,-17694.2,141.5,4254.9,4015.1,5709
-8843.8,-7693.4,-9699,-17688.2,147.4,4261.5,4015.2,5723
-8837.9,-7694.6,-9690.4,-17692.5,148,4260.9,4022.7,5722.9
-8831.1,-7692.4,-9686.5,-17687.1,145,4254.8,4028.6,5715.8
-8828.5,-7684.9,-9687.8,-17691.7,132,4234.7,4040.7,5689.8
-8832.5,-7687,-9691.8,-17691.4,128.4,4228.9,4042.9,5678.7
-8835.5,-7695.3,-9697.1,-17692.7,130,4232.4,4036.7,5682
-8842.6,-7703.1,-9702.6,-17694.2,129.8,4235.2,4030.3,5687.2
-8853.3,-7706.3,-9706.8,-17694.3,132.3,4239.7,4027.6,5698
-8852.2,-7701.4,-9705,-17696.6,135,4241.3,4027.4,5703.2
-8848.9,-7697.4,-9703.1,-17694.6,137.7,4242.5,4026.5,5705.3
-8844.6,-7692.5,-9699.1,-17690.2,140,4244,4027,5706.9
-8838.8,-7688.8,-9693.6,-17686.2,144.1,4247,4028.3,5711.1
-8838.6,-7689.7,-9694,-17685.7,146.9,4249.8,4029.8,5713.8
-8838.9,-7691.9,-9696.5,-17682.9,146.1,4249.3,4030.3,5712.5
-8837.1,-7700.3,-9702.3,-17688.8,146.8,4253,4026.3,5715.4
-8838.3,-7707.6,-9713.7,-17692,155.7,4271.2,4011.6,5738.9
-8839.5,-7703.9,-9713.5,-17693.9,157.1,4272.6,4014.7,5744.7
-8839.6,-7697.2,-9708,-17692.7,154.6,4267.7,4024.2,5739.7
-8837.3,-7695.2,-9703.2,-17692.2,153.5,4265.8,4029.6,5735.8
-8832.2,-7694.4,-9703.8,-17691.1,151.4,4265.8,4030.7,5729.3
-8830.5,-7692.8,-9703.1,-17690.7,149,4265.3,4033.9,5724.9
-8835.9,-7695.8,-9700.4,-17692.6,147.5,4263.8,4035.9,5722.7
-8839.5,-7695.7,-9700.4,-17696,143,4260.7,4037.3,5719.6
-8842.4,-7692.4,-9698.8,-17700.6,134.3,4249.6,4044,5709.2
-8847.2,-7693.3,-9702,-17699.6,133.4,4245.1,4043.5,5704.8
-8847.7,-7697.9,-9706.5,-17697.5,134.4,4247.3,4037.9,5707.5
-8843.2,-7697.8,-9702.4,-17694.3,135.1,4247.7,4036.9,5707.8
-8837.4,-7694.9,-9695.8,-17692.9,129.3,4239.3,4042.1,5694
-8836.7,-7695.3,-9697.4,-17684.9,127.4,4237.9,4041.3,5688.9
-8839,-7698.4,-9700.3,-17688,130.3,4242.7,4038.4,5693.1
-8837.6,-7702.3,-9699.6,-17699,134.3,4248.3,4033,5698.1
-8842.2,-7704.6,-9703.2,-17698.9,146.5,4262.5,4020.8,5715.9
-8844.1,-7701.9,-9702.7,-17701.4,150.4,4267.4,4018.2,5726.9
-8844.6,-7700,-9703.3,-17706.4,147.1,4264,4020.5,5723.9
-8841.8,-7695.7,-9702,-17702.7,143.1,4258.7,4025.6,5719.1
-8838.2,-7692.1,-9699.1,-17703.2,127.9,4239,4036.3,5694.8
-8837.9,-7691.6,-9697.6,-17698.7,125.1,4233.7,4038.9,5684.8
-8839,-7695.3,-9697.8,-17699.4,130,4239,4035.7,5690
-8841.7,-7692.4,-9700.6,-17703.4,133.5,4244.3,4033.3,5696.6
-8853.5,-7694.1,-9706.9,-17703,138.7,4251.9,4033.1,5708.4
-8856.1,-7698.1,-9708.9,-17701.2,139.6,4254.7,4030.3,5712.8
-8856.3,-7701.2,-9711.8,-17701.8,136.4,4252.9,4025.3,5711.3
-8851.7,-7698.5,-9712.2,-17701.1,136.5,4251.9,4024.4,5711.4
-8846.1,-7692.2,-9709.7,-17695.5,139.2,4252.7,4024.4,5713.7
-8844.3,-7689.3,-9705.7,-17693.8,143.4,4255.5,4027.1,5717
-8841.1,-7691.8,-9701.8,-17691.9,146.3,4256.2,4030.6,5717.3
-8838.5,-7690.6,-9702.6,-17693.8,150,4260.5,4029.4,5720.4
-8836.9,-7690.4,-9709.6,-17694.8,160.4,4279,4013.3,5743.1
-8834.9,-7694,-9707.9,-17698.7,161.7,4281.4,4013.4,5748.9
-8833.7,-7690.8,-9705.8,-17702,155.6,4274.2,4020.1,5740.5
-8835.5,-7686.4,-9706.1,-17698,150.7,4268.2,4022,5733
-8836.3,-7697.1,-9706.8,-17696.6,148,4266,4022.6,5725.5
-8833.4,-7704.4,-9698.1,-17700.3,147.1,4264.9,4026.5,5722
-8830.3,-7694.5,-9693.4,-17701.9,147.3,4263.6,4030.2,5721.1
-8828.7,-7685.4,-9694.7,-17702.7,147.1,4262.3,4035.2,5719.7
-8832.3,-7681,-9693.8,-17699.1,139.5,4251.4,4044.2,5709.5
-8833.2,-7682.3,-9690.9,-17698.9,136.2,4245.4,4044,5703
-8837.3,-7684.5,-9695.7,-17703.8,135.9,4245.3,4038.9,5703.1
-8838.7,-7691.3,-9700.4,-17708.8,136.9,4245.4,4038.2,5703.3
-8833.2,-7688,-9701.5,-17714.1,128.6,4235.5,4040.9,5688.9
-8830.8,-7688.7,-9702.5,-17714.9,125.1,4232.6,4039,5683.4
-8834.3,-7688.2,-9702.7,-17713.3,130.8,4238.6,4039.1,5690.4
-8832.8,-7688.9,-9700.1,-17710.6,136,4245.2,4036.4,5696.3
-8833.5,-7693.5,-9697.9,-17704.4,149.7,4261.5,4027.3,5715.3
-8832.3,-7691.4,-9697.1,-17707.4,154.7,4268.4,4026.7,5727.8
-8832.8,-7691.3,-9698.8,-17707.1,151.6,4265.3,4028.9,5725.2
-8833.8,-7693.4,-9699.4,-17706.9,143.8,4257.5,4028.7,5717.4
-8833.2,-7696.4,-9699.1,-17714.8,126.9,4235.7,4036.1,5691.4
-8830.6,-7696.5,-9697.9,-17716,121.3,4229.7,4037,5681
-8831.9,-7696.8,-9699.7,-17712.4,123.4,4234.1,4032.3,5686.1
-8832.6,-7699.4,-9700.4,-17707.5,128.6,4239.9,4032,5694.4
-8840.1,-7697.6,-9702.7,-17704.4,135.7,4248.6,4034.5,5707.8
-8840.8,-7695.4,-9701.5,-17705.4,137.9,4251.3,4035.2,5711.2
-8839.1,-7698.3,-9705.1,-17709.4,138,4251.3,4032.7,5710.6
-8839.3,-7700.7,-9704.8,-17710,138.7,4251,4031.3,5710.2
-8838.4,-7702,-9704.2,-17709.5,138.3,4250.4,4027.8,5710.6
-8838.7,-7702.3,-9706.2,-17708.8,138.6,4250.8,4025.8,5712.1
-8838,-7700.1,-9703.9,-17708.6,139.6,4251.6,4027.9,5713
-8835.8,-7699,-9701.8,-17708,143.1,4256.5,4026.9,5718
-8832.1,-7702.1,-9704.7,-17705.1,157.3,4277.8,4014.2,5744
-8828.5,-7696.8,-9699.8,-17703.2,162.1,4283.5,4015.4,5752.8
-8829.4,-7691.3,-9699.1,-17707.2,157.4,4276.9,4022.7,5744.3
-8831.1,-7688.3,-9700.9,-17704.5,155,4272.5,4027.7,5737.2
-8830.6,-7695.4,-9707.1,-17710.6,149.9,4268.5,4025.6,5726.9
-8831.2,-7697.1,-9714.1,-17715.4,144.8,4264.4,4025.5,5720.7
-8834.4,-7702,-9712.9,-17714.2,145.3,4262.7,4029.4,5720
-8834.2,-7696,-9704.9,-17714.9,144.1,4259.7,4033.6,5717.8
-8835.3,-7690.4,-9699.1,-17714.6,139.8,4251.4,4046.3,5710
-8833.7,-7689.2,-9695.8,-17706.8,140.7,4248,4050.3,5705.9
-8832.7,-7690.1,-9699.3,-17705.5,143,4250.1,4047.4,5707
-8834.2,-7691.4,-9701.9,-17707.2,143,4250.2,4045.5,5705.3
-8832.9,-7693.9,-9703.8,-17714.2,134.6,4240.2,4047.4,5689.5
-8834.2,-7697.2,-9707.2,-17723.2,131,4237.1,4043.4,5684
-8834.8,-7702.2,-9708.6,-17721.6,130.5,4239.2,4035.6,5688
-8836.8,-7705.5,-9708,-17715,133.4,4243.5,4029.8,5693.4
-8838.1,-7705.2,-9702.9,-17707.2,149.1,4259.2,4022.1,5713.7
-8835.1,-7703.8,-9695.6,-17702.9,157,4266.5,4023.8,5727.3
-8829.3,-7701.3,-9686.7,-17711,157.6,4266.8,4030.9,5727.1
-8827.8,-7696.1,-9685.1,-17714.5,150.7,4260.8,4033.2,5718.6
-8828.8,-7695.2,-9688.8,-17723.2,134.1,4239.5,4042.6,5692.1
-8832.8,-7696.2,-9693.9,-17725.4,125.4,4230.8,4040.2,5678.9
-8835.5,-7702,-9698.7,-17724.7,124.7,4232.5,4031.9,5681.9
-8839.6,-7703.7,-9702.2,-17723.2,126.1,4236.2,4027,5688.6
-8844.8,-7698.7,-9704,-17720.6,132.4,4244.7,4028,5702.9
-8842.1,-7695.2,-9696.6,-17717.5,137.6,4248.4,4030.3,5708.6
-8838.6,-7691.4,-9692.3,-17714.4,138.5,4248.9,4029.8,5708.3
-8835.5,-7689.1,-9690.8,-17711.4,139.6,4249.6,4029.9,5707.8
-8829.5,-7698.3,-9688.4,-17710.4,141.7,4251.8,4029.7,5709.6
-8830.5,-7699.3,-9693.7,-17712,141.3,4252.4,4027.7,5709.8
-8833.8,-7705.3,-9699.4,-17713.5,138.6,4251.4,4025.5,5708.5
-8836.3,-7707.3,-9701.9,-17710.7,140.1,4255.1,4022.7,5712.8
-8838.7,-7705.8,-9707,-17707.3,151.7,4274.5,4008.2,5738.2
-8837.7,-7696.9,-9701.9,-17710,155.9,4278.9,4011.8,5746.6
-8833.9,-7687.2,-9695.9,-17709,154.7,4274.6,4024,5741.4
-8831,-7684.2,-9692.7,-17706.9,154.4,4272.5,4031.1,5736.2
-8830.1,-7689.7,-9699.2,-17708.6,150.8,4270.8,4029.9,5727.4
-8829.7,-7689.3,-9703.3,-17710.1,145.7,4266.7,4029.1,5719.9
-8834.3,-7685.2,-9704.5,-17712.3,140.7,4261.7,4026.3,5714.8
-8838,-7692.6,-9703.2,-17714.6,137.3,4258.3,4027.7,5712.3
-8841.4,-7689.7,-9697.5,-17715.4,131,4248.4,4037.9,5704.1
-8839.9,-7682.5,-9696,-17716.8,132.4,4245,4042,5701
-8838.6,-7683,-9697,-17714.8,137.3,4249.3,4042.3,5705.7
-8835.2,-7682,-9695.7,-17709.3,139.5,4250.9,4043.6,5706.4
-8832.8,-7682.3,-9698.7,-17708.7,133.3,4242.3,4047.3,5691
-8835.6,-7683.3,-9704.8,-17705.4,129.6,4239,4042.9,5684.1
-8838.7,-7689.6,-9708.7,-17703.7,128.9,4240.7,4035.2,5687.1
-8844,-7695.8,-9710.2,-17710.7,130.5,4243.4,4027.6,5690.8
-8849.9,-7694.9,-9707.5,-17711.2,142.8,4258.1,4016.3,5709.5
-8847.9,-7694.1,-9696.7,-17712.6,149.9,4265.9,4017.6,5724.2
-8845.4,-7691.5,-9690,-17713.6,149.8,4265.3,4024.1,5724.9
-8842,-7686.8,-9687.3,-17709,146.6,4259.9,4030.1,5718.9
-8838.6,-7688.3,-9685.5,-17705.1,131.7,4239.6,4041.4,5692.7
-8837,-7690.9,-9688,-17710,126.5,4234,4042.7,5681.7
-8837.3,-7691,-9695.4,-17724.7,129.3,4238.6,4037.9,5686
-8844.2,-7692.2,-9704.5,-17722.8,129.5,4242,4031.3,5691.2
-8859.1,-7696.9,-9709.1,-17717.4,132.8,4248.3,4027.8,5704
-8860.2,-7697.8,-9704.5,-17719.4,136,4251.6,4028.1,5710.6
-8856.3,-7694.9,-9701,-17722.8,137.8,4253.5,4028.3,5713.2
-8853.1,-7689.6,-9695.5,-17718.4,138.4,4254.1,4028,5713.9
-8846.1,-7687.3,-9686.5,-17708.6,142.2,4255.9,4029.6,5716
-8844.4,-7688,-9684.7,-17707.6,143.7,4257.9,4029.7,5717.3
-8843,-7686.2,-9685,-17712.2,141.5,4256.3,4028.4,5714.7
-8844.7,-7688.7,-9693.2,-17711.8,142.6,4259.3,4024.9,5717.8
-8846.9,-7694.3,-9705.4,-17711.5,151.2,4275.9,4009,5739.3
-8849.1,-7692.1,-9700.5,-17712.3,151.7,4275.7,4010.3,5743.8
-8848,-7686.9,-9692.9,-17713.9,148.8,4269.5,4019.1,5737.3
-8844.6,-7682.6,-9688.2,-17711,148.6,4266.5,4024.9,5732.2
-8840.1,-7681.1,-9688.2,-17708.9,146.6,4264.4,4026.6,5723.9
-8839.8,-7679.1,-9686.9,-17708.3,144.9,4262.3,4030.4,5718.2
-8842.3,-7680.4,-9685,-17707,143.8,4260.6,4032.1,5715.8
-8845.8,-7683.9,-9684.2,-17708.7,140.3,4257.2,4032.8,5711.8
-8851.4,-7683.9,-9683.2,-17711.4,132.8,4247.1,4040.5,5702.1
-8854.9,-7688.3,-9685.5,-17710.7,130.5,4242.9,4038,5698.1
-8853.5,-7688.5,-9688.7,-17708.5,131.2,4244.6,4032.2,5701.1
-8846.7,-7687.6,-9683.8,-17707.8,132.6,4245.3,4031.9,5701.9
-8836.4,-7688,-9679.9,-17707.7,126.8,4238.1,4035.7,5688.7
-8833.2,-7687.5,-9685.2,-17704.3,126.3,4238.9,4034,5685.5
-8835.6,-7687.2,-9690.6,-17700.8,130.4,4243.3,4032.4,5690.3
-8838.1,-7689,-9694.6,-17704,132.8,4246.9,4027.8,5693.6
-8842.8,-7691.5,-9692.5,-17703,145.6,4261.7,4018.4,5711.6
-8847.7,-7691.7,-9692.5,-17704.8,148.4,4266.6,4015.7,5722.8
-8850.8,-7687.6,-9693.8,-17710.7,145,4263,4018.5,5720.4
-8848.9,-7685.6,-9690.7,-17713.4,141.8,4258.1,4025.2,5715.5
-8843.8,-7682.6,-9684.4,-17717.8,128.9,4239.1,4038.9,5691.7
-8845.1,-7690.2,-9682,-17713,126.6,4235,4043.2,5682.5
-8849.4,-7691.8,-9680.5,-17711.5,130.7,4241,4039.8,5688.2
-8853.3,-7697,-9684.6,-17713.9,135.5,4247.1,4037.9,5695.8
-8861.5,-7703.8,-9690.3,-17712.3,141.1,4254.7,4037.8,5709
-8861.8,-7703,-9690.7,-17718.9,140.3,4255,4033.9,5711.3
-8859.1,-7701.3,-9691.2,-17721.9,137.8,4253,4028.9,5710.1
-8855.1,-7698.5,-9687.8,-17728.7,137.8,4252.4,4027.6,5710.8
-8850.7,-7695.4,-9682.6,-17725.7,142.4,4254.7,4028.6,5715
-8848.3,-7696.6,-9680.8,-17719.2,145.7,4257.6,4029.9,5718.4
-8845.3,-7690.9,-9678,-17713.1,147.5,4258.7,4032.7,5718.4
-8845.7,-7690,-9681.8,-17711,149.8,4262.7,4031.2,5722
-8849,-7690.3,-9689.7,-17704.9,158.6,4279.5,4016.4,5743.2
-8849.9,-7694.3,-9684.1,-17710.1,159.8,4279.5,4019.1,5746
-8851.2,-7693.9,-9678.6,-17716.8,155.8,4271.8,4026.8,5737.3
-8853.6,-7693,-9677.7,-17718,152,4266.5,4028.7,5730.2
-8852.3,-7693,-9679.7,-17716.7,148.6,4264.1,4027.4,5722.3
-8851,-7691.8,-9679.7,-17714.8,146.8,4262.9,4029.3,5718.1
-8846.6,-7692.7,-9676.6,-17712.6,149.6,4263.4,4035,5718.1
-8843.9,-7687.8,-9675.8,-17710.5,146.8,4261.2,4037.7,5716.2
-8844.5,-7682.1,-9673.8,-17708.5,139.5,4251.8,4046.8,5706.8
-8846.4,-7685.5,-9677.7,-17709.5,138.5,4248.1,4047.9,5701.9
-8849,-7690.1,-9682.7,-17710.6,139.2,4249.5,4042.1,5703.4
-8849,-7693.5,-9684.3,-17713.8,137.6,4248.6,4037.3,5703
-8846.1,-7695,-9680.1,-17721.8,129.9,4240.1,4037.8,5689.6
-8846.2,-7694.3,-9677.6,-17724,127.5,4239.2,4034.7,5686.5
-8845.4,-7697.9,-9673.2,-17721,132.3,4244,4032.9,5692.7
-8845.2,-7698.8,-9672,-17719.7,137.9,4249.6,4030.7,5697.5
-8847.2,-7696.7,-9672.7,-17716.2,152.5,4266,4023.3,5716.2
-8849.4,-7688.2,-9672.8,-17713.8,155.5,4271.1,4021.8,5727.1
-8848.8,-7690.6,-9673.7,-17715.9,153.2,4268.5,4026.5,5724.5
-8848,-7692.2,-9681.3,-17716.4,147,4261.8,4029.6,5716.9
-8844.6,-7694.2,-9684.8,-17721.2,129.1,4239,4036.7,5689.7
-8846.1,-7697.3,-9682.8,-17716.1,123.4,4232.5,4035.2,5679.5
-8850.7,-7700.2,-9683.9,-17708.3,126.3,4236.6,4029.3,5684.6
-8854,-7693.8,-9686.7,-17702.3,131.9,4242.8,4029.3,5693.5
-8862.2,-7690.5,-9682.5,-17704.6,140.4,4252.1,4033.2,5709.1
-8864.2,-7689,-9677.3,-17707.4,141.9,4254.3,4033,5713
-8862.7,-7690.5,-9675.6,-17708.3,139.3,4253,4029.4,5711.2
-8860.5,-7693.8,-9678.6,-17710.2,138.3,4251.8,4027.5,5710.1
-8864.6,-7697.7,-9682.4,-17705.7,138.8,4251.9,4026.4,5712
-8867.5,-7697.4,-9681.4,-17699.2,138.9,4252.6,4025.8,5714.1
-8868.6,-7696.3,-9679.6,-17700.2,139.3,4252.9,4028,5714.9
-8868,-7695.9,-9680.8,-17701.6,143.9,4258.3,4028.7,5720.5
-8864.4,-7699,-9686.2,-17697.9,158.2,4278.9,4018.5,5745.8
-8858.4,-7696.6,-9683.2,-17696.4,161.6,4282,4023.4,5751.5
-8860,-7694.1,-9681.1,-17696.2,157.3,4275.5,4031,5742.6
-8859.6,-7693.9,-9680.4,-17699.2,154.3,4271.6,4034.6,5736.3
-8861.1,-7700.5,-9686.2,-17706.1,147.7,4268.1,4030.4,5726.7
-8863.3,-7698.7,-9687.9,-17707.9,141.7,4263.7,4028.5,5719.7
-8866.9,-7695.7,-9688.3,-17703,139.2,4260.8,4029.3,5717.2
-8865.5,-7700.8,-9683,-17705.6,139.8,4259.7,4035,5717.3
-8865.5,-7690.4,-9676.1,-17704,134.8,4251.1,4046,5709.2
-8863,-7686.1,-9670.8,-17700.8,136.9,4249.2,4050.3,5706.5
-8864.4,-7688.4,-9677.7,-17697.9,138.3,4251.9,4046.5,5708.9
-8866.2,-7691.1,-9681,-17697.2,137.5,4251.8,4043.5,5707.8
-8865.4,-7697.5,-9685.3,-17704.1,129.8,4243.1,4044.9,5693.2
-8865.8,-7703.6,-9690.9,-17708.2,126.4,4241,4040,5688.1
-8869.5,-7705.9,-9693.2,-17709.9,127.5,4243.3,4032.5,5692.7
-8872.5,-7701.4,-9690.5,-17707.7,131.5,4247.5,4027.2,5698.1
-8871.7,-7700.8,-9687,-17701.8,147.2,4264,4020.5,5719.2
-8869.2,-7698.6,-9681.9,-17695.3,152.7,4270.3,4022.4,5731.7
-8867.7,-7698.2,-9675.1,-17692.5,151.6,4268.6,4029.2,5730.2
-8866.1,-7693.1,-9676.8,-17694.9,146.8,4262.6,4034.4,5722.3
-8863.6,-7686.4,-9684,-17702.7,128.5,4240,4041.1,5693.7
-8864.7,-7698.2,-9690.3,-17705.6,122.6,4234.1,4038.9,5682.8
-8870.8,-7705.2,-9698.3,-17701.6,122.4,4236.8,4029.3,5686
-8875.3,-7708.8,-9699.7,-17702.5,126.2,4241.1,4026.5,5693.3
-8884.4,-7702.9,-9699.9,-17702.6,134.9,4250.8,4030,5709.2
-8884.4,-7699.3,-9697.3,-17699.2,138.3,4254.5,4032,5715.4
-8877,-7695.6,-9695.7,-17702,141.4,4256.6,4033.8,5716.9
-8869.9,-7693.6,-9689.8,-17710,144.6,4258.5,4036.4,5717.7
-8865.9,-7695.5,-9685.5,-17706.2,143.8,4258.3,4033.6,5717.7
-8867.2,-7698.9,-9689.7,-17701.9,141.4,4257.5,4029.6,5716.3
-8868.4,-7700.8,-9691.3,-17704.6,138.9,4255.4,4028.1,5714
-8870.4,-7706,-9690.2,-17711.8,140.4,4258.4,4024.6,5717.3
-8870,-7712.4,-9692.1,-17712.1,152.9,4276.5,4013.6,5741
-8868.3,-7706.9,-9682.7,-17709.5,158.3,4278,4022.3,5746
-8861.8,-7701.6,-9676.8,-17705.6,156.7,4272.6,4032.2,5738.7
-8855,-7698.2,-9676.4,-17702.9,157,4270.4,4037.3,5733.5
-8852.7,-7701.5,-9685.6,-17707.9,153.8,4268.9,4036.3,5725.4
-8854.6,-7704.9,-9689.8,-17714.9,149.2,4265.8,4036.1,5719.3
-8857.8,-7706.3,-9692.4,-17718.7,145.9,4262.7,4035.7,5716.6
-8862.6,-7704.5,-9695.5,-17719.5,140.2,4258.6,4035,5714.3
-8865.4,-7699.6,-9691,-17719.7,132.7,4248.1,4043,5705.5
-8861.5,-7699,-9687.2,-17717.9,133.7,4244.9,4045.6,5701.8
-8859.4,-7696.2,-9686.7,-17715.4,138.4,4248.5,4044.4,5705.2
-8858.6,-7698.5,-9682.1,-17713.8,140.7,4250.5,4044.5,5706.3
-8851.9,-7700,-9681.5,-17715.1,133.4,4243.7,4046,5692.8
-8851.6,-7702.2,-9691.1,-17712.5,130.6,4243.2,4041.5,5688.2
-8853.7,-7707.3,-9698.6,-17715.3,130.9,4245.8,4034.7,5692
-8856.8,-7713.6,-9702.5,-17720.9,133.3,4249.8,4029.1,5697.1
-8858.2,-7714.3,-9703.3,-17721,146,4264.5,4018.7,5716.6
-8857.6,-7712.2,-9699.3,-17717,151.6,4270.3,4019,5729.8
-8854.9,-7704.3,-9693.1,-17715.2,150.3,4268.2,4025.1,5728.5
-8853.1,-7697.2,-9688.1,-17715.4,148.1,4263.6,4032.3,5723
-8850.9,-7691.6,-9689.2,-17718.5,134.2,4243.9,4043.5,5697.2
-8849.8,-7689.5,-9696.4,-17718.4,128.1,4237.9,4043.1,5685.6
-8849.5,-7700.1,-9701.3,-17721.7,129,4241.6,4036.3,5689.2
-8853.3,-7709.9,-9702.2,-17727.1,130.1,4245.1,4030.6,5695
-8865.2,-7708.2,-9704.1,-17730.8,131.7,4250.6,4026.3,5706.6
-8867.3,-7700.9,-9703.1,-17726.7,130.7,4251.5,4022.3,5709.8
-8862.3,-7701.2,-9697.5,-17726.4,131.3,4252.5,4021.5,5711.1
-8851.9,-7704.1,-9687.5,-17730.7,135.2,4255,4025.4,5713.6
-8846.6,-7693.1,-9685.5,-17725.3,138,4256.2,4026.5,5715.6
-8844.9,-7695.1,-9685.2,-17726.4,141,4258.6,4028.6,5717.5
-8845.2,-7696.6,-9686.9,-17729,140.3,4257.5,4029.3,5715.7
-8846.5,-7699.1,-9692.1,-17729.4,138.5,4258.3,4023.5,5716.3
-8849.1,-7706.9,-9701.1,-17727.8,147.6,4274.6,4009.3,5737.3
-8849,-7702.3,-9702.4,-17731.3,148.8,4275.2,4013.1,5742.2
-8849.5,-7694.9,-9694.6,-17732.7,145.9,4268.9,4021.5,5735.5
-8846,-7689.9,-9687.1,-17729.4,144.4,4265.4,4024.9,5729.3
-8842.6,-7691.9,-9684.5,-17724.7,141.8,4264.7,4024.6,5722
-8839.3,-7694.4,-9683.5,-17726.4,141.1,4263.5,4028.5,5717.1
-8840.1,-7692.2,-9685,-17729.3,140.8,4262.1,4030.9,5714.7
-8842.3,-7691.1,-9688.4,-17731,136.7,4258.1,4031.4,5711
-8848.5,-7690.8,-9686.7,-17727,125.9,4246,4037.5,5699.8
-8852.6,-7694.3,-9684.6,-17729.6,122.7,4240.8,4036.6,5695.4
-8852.7,-7697.3,-9685,-17734.7,125.8,4244.1,4033.8,5699.9
-8850.7,-7699,-9687,-17729.6,127.8,4245.5,4033.9,5701.6
-8843.9,-7692.3,-9685.8,-17730.1,122.1,4237.8,4037.9,5688.9
-8840.7,-7684.1,-9690.2,-17727.7,120.9,4237.6,4035.9,5685.4
-8841.6,-7685,-9693.5,-17727.6,124.7,4242.6,4032.8,5690.1
-8845.3,-7690.1,-9697.5,-17729.2,126.6,4246.3,4026.2,5693.3
-8850.1,-7694.8,-9698,-17725.3,138.4,4260.4,4015.5,5711.3
-8854,-7696.6,-9696.9,-17723.3,142,4264.9,4013.9,5722.5
-8855.1,-7694.8,-9695.3,-17724.3,138,4261.4,4016.3,5719.8
-8854.2,-7690.3,-9690.6,-17724.9,134.8,4256.8,4022.4,5715.2
-8851.3,-7685.9,-9689.3,-17729.1,121.7,4238,4034.4,5691.6
-8848.5,-7685.5,-9693.9,-17727.3,118.3,4232.7,4036.4,5681.9
-8847.6,-7684.9,-9701.1,-17722.4,123.7,4238.3,4034.3,5687.4
-8847.7,-7683.2,-9708.8,-17723.1,126.4,4242.8,4030.5,5693.4
-8858.3,-7692.5,-9706.4,-17725.9,132.3,4251.1,4031,5706.2
-8860.8,-7696.6,-9698.5,-17729.8,131.4,4250.7,4026.8,5707.7
-8859.2,-7700.8,-9695.4,-17733,130.2,4248.8,4022.8,5706.4
-8854.7,-7701.3,-9695.4,-17726.4,128.7,4247,4019.3,5705.7
-8850.6,-7699.7,-9693.7,-17721.2,133.2,4249.3,4021.1,5710.1
-8847.8,-7694.7,-9689.9,-17727.9,138.6,4253.1,4024.6,5714.1
-8843.6,-7690.4,-9686.2,-17727.5,140.7,4254.6,4027.9,5714.6
-8841.5,-7688.5,-9689.7,-17726,143.7,4260.1,4027,5719
-8842.1,-7699,-9694.5,-17726.5,155.3,4279.7,4013.3,5742.9
-8841.8,-7700.4,-9693.8,-17728,156.7,4281.1,4014.6,5747.3
-8843.4,-7699.3,-9696.1,-17729.9,151.2,4273.2,4021.2,5738.2
-8844.5,-7697.9,-9698.5,-17730,146.7,4268.6,4023.5,5732
-8840.2,-7699.8,-9697.7,-17729.1,143,4265.9,4021.1,5723.9
-8835.7,-7699.5,-9696.9,-17729,141.4,4263.7,4023.7,5719.6
-8834.4,-7694,-9695.7,-17723.1,142.5,4262.5,4028.5,5718.1
-8835.1,-7684.1,-9697.9,-17719.1,141.2,4259.5,4031.8,5715.5
-8834.6,-7684.3,-9693.5,-17721.2,136.1,4250.3,4042.4,5706.4
-8835.3,-7689.4,-9688.9,-17722.1,133.5,4245.2,4042.2,5699.8
-8836.7,-7693.3,-9688.1,-17720.9,131.5,4245.4,4035,5699
-8838.8,-7696.7,-9689.2,-17722.2,128.1,4243.6,4029.7,5697.5
-8835.6,-7701.1,-9685.2,-17725.6,120.8,4234.6,4032.6,5683.8
-8833.2,-7704.9,-9682.9,-17725.9,119.3,4232.9,4031.3,5680
-8834.2,-7704.3,-9683.3,-17725.8,122.9,4237.5,4028.4,5686.1
-8834.7,-7705.7,-9686.2,-17724.2,128.5,4243.7,4025,5692.7
-8836.2,-7703.7,-9683.1,-17717.8,144.9,4261.3,4019.3,5713.1
-8836.7,-7699.6,-9686.1,-17718.1,150.6,4268.6,4019.3,5725.9
-8833.4,-7696.4,-9687.2,-17721.1,145.7,4265.4,4020.9,5723
-8836.6,-7698.4,-9687.5,-17722.2,137.5,4258.4,4022.1,5715.6
-8837.2,-7696.6,-9689.8,-17733.7,120.8,4237.3,4030.3,5689.8
-8839.6,-7693.1,-9692.1,-17735.4,115.7,4230.5,4031.7,5679
-8838.8,-7696.7,-9691.1,-17734.1,121.1,4236.4,4029.9,5685.3
-8841.7,-7696.6,-9690.8,-17733.8,125,4242.4,4028.3,5693.4
-8848,-7693.2,-9690.1,-17734.5,133.1,4251.2,4033,5707.6
-8848.2,-7691.5,-9690.4,-17728.7,135,4253.3,4033.5,5711.5
-8848.1,-7691.6,-9694.3,-17727.3,133.6,4252.3,4029.1,5710.5
-8846.9,-7697.2,-9697.3,-17727.1,133.4,4252,4027.2,5710.4
-8844,-7700,-9698.1,-17724,133,4252,4023.8,5711.7
-8843.7,-7699.3,-9700,-17722,131.7,4251.9,4021.2,5712.7
-8843.1,-7695.8,-9700.1,-17723.5,132.6,4252,4023.4,5713.3
-8842.6,-7690.6,-9701,-17722.6,138.2,4258,4024.7,5719.1
-8844,-7692.8,-9705.6,-17717.5,152.5,4278.3,4014.3,5744
-8844.2,-7687.8,-9699.7,-17713.5,154.9,4280,4018.8,5748.6
-8843.4,-7687.5,-9694.7,-17713.7,151.9,4273.9,4028.4,5740.6
-8844,-7687.9,-9699.4,-17713.1,149,4269.9,4029.8,5733.5
-8845.6,-7691.1,-9709.9,-17715,144.7,4266.7,4025.9,5724.4
-8847.9,-7691.4,-9712.2,-17723.2,142.1,4263.7,4026.2,5719.1
-8849.5,-7689.7,-9708,-17727,141.4,4261.9,4028,5717.4
-8851.5,-7684.7,-9704.3,-17724.8,138.9,4259.1,4030.6,5715.6
-8852.3,-7676,-9700.1,-17718.6,132.6,4249.7,4041.3,5707.3
-8852.4,-7672.2,-9694.6,-17710.7,132.8,4246.5,4044.6,5702.9
-8853.5,-7675.5,-9695.3,-17706.2,133.8,4249,4041,5704.6
-8849.5,-7678.3,-9696,-17708.2,132,4248.7,4037.9,5703.5
-8847.5,-7685.7,-9696.6,-17716,122.7,4238.9,4038.4,5687.6
-8851.9,-7691.3,-9700,-17717,118.1,4235.2,4033,5680.6
-8855,-7696.2,-9702.6,-17719.8,119.5,4238,4027.4,5684.7
-8855.9,-7696,-9702.7,-17721.5,125.3,4244,4025.1,5692
-8859.5,-7697.6,-9700.1,-17714,141.6,4261.6,4018.7,5713.5
-8857.7,-7693.4,-9690.8,-17708.1,149.4,4269.3,4021.3,5726.9
-8855.8,-7680.8,-9684.7,-17715.6,148.7,4267.5,4026.5,5724.1
-8855,-7679.3,-9682.5,-17717.1,143.4,4261.4,4029.9,5716.7
-8851.1,-7688.1,-9682.7,-17724.2,127.4,4240.2,4038.9,5690.5
-8855.4,-7689.1,-9693.2,-17726.1,119.5,4232.2,4036.7,5677.5
-8863.8,-7693.5,-9704.7,-17723.9,121.3,4236,4030.6,5681.7
-8868.3,-7690.1,-9711.8,-17718.6,123,4239.7,4025.8,5688.5
-8876.3,-7692.3,-9713.7,-17713.5,130.7,4248.1,4029.1,5702.8
-8875.1,-7698.1,-9705.2,-17714.9,136.3,4253.9,4031.9,5710.5
-8870.8,-7694.7,-9700.5,-17709.6,137.1,4257.3,4027.4,5714.3
-8862.7,-7695.8,-9699.2,-17705.9,137.8,4259,4025.6,5715.7
-8858.8,-7691.3,-9698.6,-17703.8,138.4,4259.1,4025.9,5715.8
-8862.7,-7694,-9700.5,-17704.7,136.9,4258.8,4024.4,5715
-8865.4,-7694.7,-9702.3,-17705.3,132.8,4256.4,4022.2,5712.1
-8868.3,-7698,-9704.5,-17710.9,132.6,4258.1,4017.6,5714.4
-8867.5,-7701.6,-9703.3,-17715,145.5,4275.9,4006,5737.7
-8866.3,-7693.3,-9695.8,-17714.1,150.2,4277.1,4012.8,5742.8
-8864.3,-7685.3,-9687.7,-17709.2,149.9,4272.2,4024.4,5736.2
-8865.6,-7684.5,-9684.6,-17704.7,149.3,4269.6,4029.2,5730.5
-8866.2,-7689.5,-9690.1,-17705.2,146.2,4267.5,4028,5721.7
-8865.2,-7691.9,-9694.1,-17703.4,140.8,4263.3,4026.2,5714.1
-8868.7,-7693.5,-9697.1,-17701.1,137.3,4259.6,4024.4,5710.3
-8869.6,-7693.7,-9699.4,-17702.5,131.6,4255,4023.2,5706.8
-8869.8,-7687.9,-9699.4,-17701.7,123.9,4244.2,4031.8,5697.4
-8869.4,-7683.9,-9698.4,-17704.7,124.6,4241,4035.6,5694.6
-8865.9,-7681.9,-9699,-17704.8,129.6,4245.7,4036.1,5699.3
-8860.9,-7679.4,-9697.3,-17702.3,131.4,4247.8,4036.5,5699.9
-8857.1,-7679.2,-9695.1,-17701.1,123.6,4238.8,4038.4,5684.4
-8859.5,-7685.3,-9700.9,-17698.5,118.8,4235.9,4033.9,5677.8
-8861.9,-7690.9,-9707.6,-17695.2,117.7,4237.6,4026,5680.7
-8867.9,-7697.6,-9710.1,-17693.1,117.7,4239.7,4016.7,5683.2
-8872.1,-7700.6,-9709.4,-17689.5,130.8,4253.7,4005.8,5701.8
-8869.7,-7695.6,-9705.9,-17689.3,138.3,4260.8,4006.1,5715.8
-8865.5,-7689.7,-9702.7,-17690.4,138.4,4259.8,4012.2,5716.1
-8862.1,-7684.7,-9697.4,-17692,135.9,4255.6,4018.8,5711.4
-8855.8,-7681.4,-9692.6,-17699.8,123,4236.3,4030.5,5687.2
-8859.3,-7687.2,-9697.2,-17699.8,118.5,4229.5,4031.3,5675.2
-8865.4,-7693,-9701.7,-17699.4,119.7,4231.9,4024.2,5677.2
-8873.6,-7695.5,-9706.3,-17700.2,120.5,4235,4018.4,5683.2
-8884.8,-7698.4,-9710.8,-17708.3,125.8,4241.7,4018.5,5696.2
-8884.5,-7698.3,-9708.5,-17713.2,129.3,4243.5,4019.3,5701.9
-8882.2,-7691.7,-9707.6,-17707.3,130.3,4243.4,4018.4,5702.8
-8876.2,-7689.2,-9705.1,-17700.5,132.2,4244.1,4018.9,5703.8
-8869.9,-7686.3,-9699.8,-17692.8,136.5,4246.1,4020.5,5706.7
-8866.5,-7679.8,-9698.6,-17697.2,138,4247.3,4020.3,5708.3
-8866.4,-7679.5,-9700.4,-17703.3,136.8,4247.5,4020.2,5707.6
-8866.4,-7686.5,-9706,-17706.1,135.6,4249.5,4014.7,5709.5
-8869,-7695.7,-9720.8,-17704.6,147.2,4268.6,4000.7,5733.6
-8867.6,-7687.1,-9744.5,-17702.6,153.4,4273.3,4006,5742.6
-8866.5,-7676.3,-9735.4,-17701.3,149.3,4267,4014,5735.5
-8866.6,-7683,-9695.8,-17704.7,143.5,4261.1,4015.3,5727.4
-8863.2,-7686.5,-9686.7,-17704.6,140,4258.8,4014.1,5718.3
-8861,-7682.7,-9692.1,-17702.6,139.1,4258,4018.3,5713.5
-8861.8,-7680.4,-9697.8,-17708,138.8,4256,4022.2,5710.9
-8863.9,-7680.3,-9702.9,-17711.1,136.4,4253,4024.9,5708
-8868.2,-7677.9,-9703.9,-17712.1,127.5,4241.7,4032.2,5697.4
-8872.4,-7680.7,-9701.7,-17712.3,124.7,4236.6,4031.8,5691.3
-8871.5,-7683.2,-9701.7,-17708.4,124.9,4237.1,4026.7,5692.1
-8868.2,-7681.3,-9702.1,-17707.1,125,4237.2,4025,5692.4
-8864.3,-7679.3,-9698.9,-17708.7,119.6,4229.9,4029.2,5680
-8862.3,-7682.6,-9702.4,-17703.9,121.2,4231.3,4031.1,5677.8
-8860.2,-7684.8,-9713,-17702.3,125.2,4236.2,4029.1,5683.2
-8861.9,-7686,-9716.2,-17706.1,127.5,4239.2,4023.2,5686.4
-8868.8,-7682.5,-9714.2,-17708.5,139.2,4253.1,4012.7,5703.8
-8873.2,-7679.8,-9707.9,-17715.6,142.9,4258.1,4010.3,5714.6
-8874.6,-7685.7,-9704.5,-17719.1,139.9,4254.6,4013.8,5712.2
-8874,-7684.5,-9702,-17717.6,136.4,4249.3,4019.9,5706.8
-8872,-7678,-9700.6,-17718.9,122.2,4229.6,4031.3,5682.6
-8866.6,-7676.6,-9698,-17714,117.9,4224.2,4032.8,5672.3
-8868.2,-7677.2,-9702.5,-17711.9,121.5,4228.9,4028.9,5677
-8872.5,-7678.6,-9705.9,-17711.3,125.8,4234.5,4026.6,5684.1
-8882.2,-7683,-9711,-17709.2,129,4240.4,4024.9,5695.6
-8886.9,-7686.1,-9715,-17709.8,127.5,4240,4021,5697.5
-8886.9,-7688.8,-9719.4,-17710.7,125.2,4238.7,4015.8,5696.4
-8883.4,-7689,-9717.1,-17714.9,124.8,4238.2,4013.9,5697.1
-8880.2,-7684.6,-9709.3,-17716.7,127.2,4239.7,4013.9,5700.5
-8878.9,-7681.8,-9704.2,-17714.1,129.1,4241.6,4013.9,5702.7
-8878.7,-7673.7,-9699.3,-17708.8,129.6,4242,4015.6,5701.6
-8880.4,-7670.9,-9701,-17708.6,132.4,4246.6,4014.3,5704.3
-8876.2,-7685.7,-9707.1,-17713.4,145,4267.1,4002.6,5728.4
-8876,-7682.5,-9706.9,-17713.4,145.5,4267.8,4003.5,5731.9
-8879.2,-7681.2,-9704.1,-17715.9,140.7,4259.4,4011.7,5722.9
-8880.2,-7681.2,-9705.4,-17719,137.1,4253.5,4014.6,5715.5
-8878.8,-7685.6,-9706.5,-17719.8,134.4,4250.8,4014,5707.3
-8877.7,-7683.5,-9703.4,-17728.1,132.4,4247.9,4016.9,5702.1
-8875,-7679.2,-9697.8,-17731,134.3,4247.4,4022.1,5701.4
-8875.4,-7676.1,-9696.2,-17719.9,132.4,4245,4024.9,5699.5
-8878.4,-7667.7,-9694.4,-17718.8,124.9,4235,4033.5,5689.2
-8879,-7668.6,-9694.5,-17720.3,121.9,4229.6,4033.2,5682.9
-8878.3,-7678.4,-9698.6,-17719.4,121.9,4229.9,4027.1,5683.5
-8880.8,-7680.6,-9704.8,-17722.6,119.5,4228.6,4022.4,5681.6
-8877.7,-7682.2,-9701.5,-17729,112.4,4219.6,4024.4,5668.1
-8876.2,-7686.1,-9700.5,-17726.5,110,4218.5,4021.7,5664.8
-8876,-7687.8,-9699.1,-17721.4,113,4223,4018.3,5670.7
-8875.4,-7689.7,-9697.8,-17722.3,119,4229.5,4016,5676.8
-8875.1,-7685.1,-9696.5,-17720.8,135.9,4246.8,4010.1,5696.9
-8875.3,-7683,-9699.2,-17720.3,141.2,4253.2,4009.9,5708.6
-8875.6,-7682.6,-9705.3,-17720.8,138.1,4250.4,4012.8,5705.8
-8876.8,-7683.9,-9709.4,-17724.2,131.4,4243.3,4014.3,5697.5
-8875.7,-7685.9,-9708.4,-17732.7,114.8,4222,4022.2,5671.5
-8875.2,-7689,-9706.1,-17730.9,110.3,4216.3,4022.7,5662.3
-8875.1,-7691.7,-9705,-17728.3,114.6,4221.9,4018.6,5668.7
-8876.2,-7688.6,-9706.4,-17725.4,119.5,4228.3,4016.7,5677.1
-8882.4,-7686.5,-9707.2,-17722.1,126.2,4237.5,4018.6,5691.9
-8883.2,-7687.2,-9701.8,-17722.3,127.2,4240,4017,5695.9
-8881.7,-7689.3,-9700.3,-17723.3,124.9,4238.3,4012.7,5693.3
-8880.6,-7695.2,-9701.1,-17723.3,123.2,4236.6,4010.2,5691.8
-8876.7,-7693.4,-9698.5,-17728.8,123.2,4236.3,4007.5,5693.4
-8876.7,-7690.9,-9701.8,-17730.9,121.9,4235.9,4005.3,5694.3
-8874.4,-7687.5,-9699.6,-17730.1,124.5,4236.6,4009.7,5695.1
-8872.7,-7688.4,-9701,-17727.4,127,4240.7,4008.6,5699
-8871.2,-7687.8,-9705.9,-17722.4,138.3,4257.9,3998.7,5721.1
-8869,-7680.9,-9700.2,-17720.2,141,4257.5,4006.4,5723.7
-8871.3,-7678.9,-9697.3,-17718,138.1,4251.1,4014.8,5715.5
-8871.8,-7684.2,-9696.5,-17718.6,135.3,4246.9,4016.5,5708.9
-8872.3,-7693.3,-9702.1,-17723.4,129.6,4243.9,4012.1,5700
-8875.4,-7697.3,-9703.1,-17725.3,124.8,4240.4,4009.9,5693.9
-8876.5,-7694.2,-9700.8,-17722,122.8,4237.7,4010.1,5692.3
-8872.9,-7689,-9701.2,-17718,120,4234.7,4012.4,5690.3
-8871.3,-7683.8,-9694.6,-17714.9,114.5,4226.2,4023.1,5682.6
-8870.7,-7682.7,-9688.6,-17713,117.3,4226.2,4026.6,5681.8
-8869.5,-7686.7,-9691.9,-17711.7,118.6,4229.4,4021.7,5684.4
-8871.1,-7690.4,-9694.2,-17711,118,4229.3,4019.1,5682.8
-8868,-7690,-9700,-17720.8,112,4221.1,4020.7,5668.5
-8870.9,-7687.7,-9707,-17723.4,107.7,4218.5,4013.1,5662.8
-8874.7,-7696.6,-9708.1,-17727.6,109.7,4221.4,4008.4,5668.2
-8875.9,-7697.3,-9708,-17727.5,114.5,4227,4006.5,5675.4
-8878.1,-7693.4,-9705.2,-17722.5,128.6,4242.7,3999.8,5695
-8877.9,-7686.9,-9697.2,-17719.6,135.6,4248.9,4004.2,5706.9
-8875.1,-7684.1,-9692.9,-17719.4,135.4,4246.7,4012.6,5704.5
-8871.6,-7687.7,-9691.7,-17720.9,129.6,4240.6,4016.3,5696.6
-8871.3,-7688.1,-9696,-17721.8,112.3,4219.9,4022.4,5669.9
-8875.7,-7694.4,-9709.9,-17719.1,105.2,4214.1,4018.1,5659.2
-8881.3,-7701,-9714.6,-17718.5,105.4,4217.2,4010.2,5663.4
-8889.4,-7702.1,-9713.3,-17717.1,106.9,4220.9,4005.9,5670.5
-8897,-7702.2,-9706.2,-17714.2,114.1,4229.4,4008,5685.5
-8893.5,-7699.3,-9701.4,-17711.3,117,4231.7,4008.7,5690.8
-8887.1,-7696.2,-9698.6,-17708.9,118.2,4232.8,4008.5,5691.7
-8882.9,-7694.1,-9696.3,-17707,118.9,4233.5,4008.7,5691.6
-8880.1,-7694.1,-9694.5,-17704.9,119.2,4233.8,4006.8,5692.3
-8880,-7695.7,-9698.7,-17705.4,117.6,4233.4,4003.9,5691.8
-8882,-7695.4,-9701,-17707.2,115.8,4231.3,4002.1,5689.4
-8885.7,-7697.9,-9706.6,-17711.4,117.5,4233.6,3998.1,5692.8
-8886,-7700.8,-9709.3,-17708.5,129.7,4250.7,3988.5,5715.8
-8882.6,-7697.5,-9700.7,-17704.6,131.9,4250,3995.6,5718.7
-8880.3,-7686.2,-9691.8,-17701.5,130.1,4244.7,4005.2,5712
-8878.7,-7683.6,-9691.8,-17692.6,130,4241.7,4008.8,5706.2
-8877.2,-7699.6,-9697.8,-17691.7,128,4240.6,4007.7,5698.2
-8876.3,-7702.2,-9704.6,-17693.9,122.9,4237,4006.1,5690.9
-8879.6,-7705.4,-9708.3,-17695.2,119.9,4233.2,4005.9,5687.3
-8883.5,-7704.8,-9710.5,-17695,116,4228.3,4005.8,5683.2
-8885.9,-7694.5,-9710.3,-17694,109.7,4218.7,4013.8,5674.5
-8883.8,-7694.9,-9704.8,-17700.1,113.1,4217.7,4017.3,5673.9
-8883.8,-7694.6,-9700.8,-17698.6,116.4,4222.2,4015.1,5678.5
-8880.3,-7692.8,-9701.6,-17691,117.2,4223.9,4014.9,5679.4
-8875.2,-7693.8,-9701.8,-17691,110.2,4216.7,4016.8,5665.8
-8876.4,-7700.8,-9706.9,-17692.1,107.6,4216.3,4012.3,5661.5
-8882.2,-7703.1,-9714.6,-17694.5,107.7,4218.6,4006.4,5664.4
-8887.4,-7705.8,-9720.4,-17696.9,108.9,4221.3,4000.3,5667.4
-8891,-7710.6,-9720.5,-17694.1,121,4235.2,3991.3,5686
-8890.7,-7704.3,-9714.2,-17693,125.6,4240.2,3992.9,5698.1
-8888.8,-7697.9,-9708.8,-17692.7,124.7,4238.3,4000.6,5696.8
-8887.5,-7695.3,-9705.2,-17688.5,122.2,4233.7,4007.9,5691.6
-8885.9,-7692.2,-9705.9,-17693.3,109.9,4215.5,4019.7,5667.4
-8885.3,-7695,-9715.1,-17693.6,106.9,4211.8,4020.5,5658.2
-8888.4,-7701.7,-9724.6,-17694.4,108.1,4214.8,4013,5661.3
-8894.9,-7708.4,-9728.2,-17696.1,109.2,4217.6,4007.1,5666.9
-8908.9,-7711.7,-9730,-17699.3,113.5,4224.7,4006.5,5680.6
-8908.3,-7712.6,-9721.2,-17705.7,115.4,4226.7,4006.6,5686
-8906,-7710.2,-9716.4,-17701.3,115.3,4226.3,4004.9,5686
-8902.7,-7708.1,-9710.7,-17696,116.8,4227.4,4006.3,5687.4
-8894.5,-7710.2,-9702.2,-17691.3,120.4,4230.1,4008.3,5690.2
-8893.4,-7704.5,-9704.2,-17686.4,121.1,4231.5,4007.6,5691
-8894.1,-7704.7,-9710.2,-17685.4,120.4,4231.1,4007.9,5689.6
-8895.5,-7708.7,-9716.1,-17685.4,119.5,4233.1,4003.1,5690.8
-8897,-7715.7,-9724.4,-17690,127.3,4247.1,3990,5709.6
-8898,-7710.9,-9721.6,-17689.8,126.6,4244.6,3993.4,5711.1
-8899,-7702.3,-9718.7,-17685.7,123.4,4238.4,4000.6,5704.5
-8895.8,-7694.4,-9715.2,-17690.2,122.6,4236.1,4004.8,5700.4
-8889.5,-7699.4,-9713.2,-17688.8,120.7,4235.1,4004.9,5693.3
-8885.7,-7697.6,-9710.5,-17686.9,118.6,4233.5,4007.1,5688.2
-8887.6,-7698.9,-9711.4,-17688.4,117.8,4232.3,4008.9,5686.4
-8892.5,-7701.8,-9713.9,-17689.5,115.2,4229.8,4010.3,5683.9
-8897,-7699.8,-9713.3,-17694.2,108,4219.5,4016.8,5674.7
-8899.2,-7699.7,-9717.6,-17693.5,105.3,4215.1,4012.5,5670.6
-8896.3,-7705.3,-9720,-17692.8,107.4,4217.5,4008,5674
-8893.7,-7703.1,-9721.9,-17695.9,109.9,4219.4,4008.9,5676.3
-8890.2,-7698.1,-9718.9,-17695.1,104.7,4213.1,4013.4,5664.6
-8892.1,-7698.5,-9719,-17691.2,104.3,4213.8,4011.6,5662
-8894.7,-7699.6,-9719,-17684.9,106.5,4217.7,4007.5,5666
-8897.5,-7706.7,-9721.4,-17686.6,107.2,4220.7,4001.1,5668.8
-8899.2,-7710.4,-9722.9,-17685.4,119.6,4234.6,3992,5687.1
-8902.5,-7708.6,-9723.1,-17684.5,122.4,4237.8,3991.3,5697.2
-8904.4,-7701.9,-9723.2,-17685.4,117.8,4232.4,3993.7,5692.8
-8903.3,-7697.7,-9721.1,-17686.4,111.9,4225.5,3997.3,5685.5
-8902,-7697.7,-9718.7,-17690.4,100.8,4208.6,4011,5663.7
-8899.8,-7695.4,-9721.3,-17684.8,97.9,4205.3,4011.5,5655.3
-8901.6,-7695.9,-9726.2,-17679.5,101.6,4211.7,4007.6,5660.7
-8905.9,-7704.4,-9729.5,-17680.4,106.2,4218.6,4006.6,5669
-8916.6,-7706.1,-9734.7,-17681.7,110.6,4226,4005.6,5682
-8917.8,-7707.5,-9735.1,-17683.7,110.8,4226.7,4003.5,5685.1
-8917,-7710.8,-9738.1,-17684.3,108.2,4224.8,3999.7,5684
-8915.4,-7707.9,-9736,-17681.1,106.9,4223.4,3997.2,5682.9
-8910.2,-7703.1,-9730.6,-17678.3,109.7,4225,3998,5685.9
-8908.3,-7701.4,-9730.3,-17682.5,113.6,4227.9,4000.9,5688.8
-8907.5,-7696.9,-9729,-17681.7,114.9,4228.4,4003.2,5688.2
-8906.5,-7698,-9728,-17673.4,117.4,4231.3,4001.2,5689.8
-8904.7,-7704.9,-9729.8,-17675.9,128.7,4247.8,3990.4,5709.6
-8905.3,-7698.9,-9724.4,-17688,129.6,4246.4,3995.6,5710.8
-8905.4,-7700.3,-9723.9,-17688.5,124.4,4239.4,4001.3,5702.6
-8906,-7701.8,-9725.6,-17688.2,120.7,4235.4,4001.8,5696.2
-8906.1,-7702.5,-9728.9,-17693.2,117.9,4233.7,3999.9,5688.4
-8904.3,-7702.1,-9726.8,-17691,116.9,4231.8,4002,5684.1
-8904.9,-7700.6,-9723.4,-17687.1,118.8,4231.3,4006.4,5683.8
-8904,-7699.5,-9721.6,-17686.1,118.6,4229.8,4010.2,5682.3
-8903.3,-7697.6,-9719.2,-17681.7,112.3,4220.6,4018.9,5672
-8902.8,-7700,-9721.8,-17676.5,110.8,4217,4018.8,5667.3
-8903.5,-7705.3,-9729.5,-17673.3,109.4,4217.9,4011.6,5668
-8905.1,-7700.9,-9732.5,-17678.6,107.7,4216.4,4007.7,5666.7
-8902.3,-7701.7,-9731.6,-17684.6,101.2,4208.3,4009.1,5654.3
-8901.1,-7703.9,-9734.7,-17680,99.4,4207.8,4005.3,5651.7
-8901.9,-7705.1,-9733.1,-17677.2,102.4,4211.6,4002.1,5656.7
-8902.5,-7707.4,-9725.6,-17676.7,108.5,4217.6,4001.1,5662.3
-8906.3,-7704.9,-9723.5,-17671.4,124.6,4233.7,3995.6,5682.4
-8909.4,-7708.3,-9722.8,-17667.5,131.3,4240.1,3998.4,5694.5
-8912.6,-7711.3,-9725.8,-17668.2,127.9,4236.5,4002.9,5690.8
-8911.9,-7712.5,-9725.8,-17671.9,121.4,4229,4005.4,5683
-8908.8,-7713.7,-9723.1,-17679.2,101.7,4205.8,4009.2,5655.4
-8904.7,-7716.5,-9722.4,-17676.8,95,4199.2,4005.8,5644.5
-8902.6,-7718,-9725.2,-17675.6,98.8,4204,4000.9,5650.1
-8905.6,-7718.6,-9729.1,-17672.8,105.4,4211,4001.8,5659.5
-8916,-7715.3,-9734.3,-17667.6,112.9,4219.5,4003.1,5673.6
-8913.6,-7711.1,-9731.4,-17667.5,115.2,4222.1,4002.6,5677.8
-8911.2,-7707.5,-9730.2,-17665.5,111.1,4220,3997.2,5674.7
-8908.4,-7707.7,-9727.5,-17666.4,108.3,4218.3,3993.7,5673
-8905.4,-7712.8,-9726.4,-17667.9,109.3,4218.4,3992.5,5674.8
-8908.5,-7712.1,-9733.4,-17665.4,109.4,4218.8,3991.9,5676.2
-8907.6,-7709.3,-9733.3,-17661.9,111.3,4219.8,3994.9,5677.6
-8903.8,-7707.2,-9729.9,-17665.5,114.3,4224.5,3993.8,5682.4
-8904.6,-7708.1,-9728.6,-17663.9,126.5,4242.5,3984.5,5705.1
-8905.8,-7698.8,-9723.6,-17660.4,129.8,4242.8,3991.4,5708.3
-8905,-7699.3,-9721.8,-17660,126.4,4236.9,3998.8,5700.7
-8903.7,-7703.7,-9724.3,-17660.1,124,4233.6,4001.1,5694.8
-8903.7,-7712.5,-9731.2,-17664.8,118.5,4230.7,3996.8,5686.2
-8905.6,-7715.3,-9733.3,-17668.5,113.1,4227.2,3995.5,5680.2
-8908.6,-7709.2,-9731.8,-17668.7,111.8,4224.6,3996.8,5678.4
-8913.2,-7704.3,-9730.9,-17662.4,109.3,4221.4,3999,5676.5
-8914.9,-7699.8,-9723.7,-17659.4,105.2,4213.3,4010.6,5669.6
-8912.3,-7696.5,-9717.2,-17661.6,107.6,4212.8,4015,5668.2
-8909.3,-7699.8,-9722,-17659.9,109.9,4216.5,4011.7,5671.2
-8908.3,-7701.1,-9729,-17663.9,109.3,4217.1,4009.6,5670.4
-8905.3,-7705.6,-9733.9,-17670.5,103,4210.1,4011.7,5658
-8908.1,-7709.8,-9742,-17674.5,99.8,4209.3,4005.5,5654.8
-8911.8,-7716.6,-9744.2,-17672.7,99.4,4211.3,3998.1,5658.3
-8914.4,-7720.3,-9744.1,-17668.6,101,4214.1,3991.9,5662.3
-8917.6,-7717.9,-9739.6,-17657.6,116.2,4229.8,3985.5,5682.3
-8914.9,-7712,-9735,-17652.3,123.8,4236.1,3989.8,5694.9
-8909.9,-7708.6,-9734.4,-17651.9,122.2,4233.4,3997.5,5692.5
-8908.6,-7709.4,-9737.5,-17658.9,116.6,4227.1,4002.1,5684.8
-8907.8,-7710.8,-9735.5,-17666.3,100.6,4207.4,4010.2,5659
-8909.1,-7717.9,-9738.6,-17665.8,93.5,4201.7,4005.8,5647.9
-8911,-7723.5,-9743.3,-17668.9,94.4,4205.4,3998.8,5652.6
-8915.1,-7722,-9747,-17668.8,96,4208.9,3993.9,5659.2
-8923.9,-7718.9,-9745.3,-17665.4,103,4217,3996.2,5674.2
-8927.4,-7713.2,-9739.4,-17661,107.9,4220.5,3999.2,5680.5
-8923.4,-7706.5,-9736.1,-17661.8,111.2,4223.1,4000.7,5682.1
-8920.6,-7699.5,-9735.9,-17661.2,112.3,4224.5,4001,5682
-8915.5,-7702.2,-9734.5,-17658.3,113.8,4225.8,4000.7,5683.7
-8913,-7709.8,-9737.3,-17662.1,114.4,4227.4,4000.5,5685.2
-8913.4,-7711.9,-9741.9,-17664.9,112.5,4226,3999.6,5684.1
-8916.3,-7709.3,-9747.6,-17666.2,111.6,4228,3994.8,5687
-8918.3,-7716.5,-9748.2,-17666.4,123.2,4244.8,3985.7,5709.4
-8915.7,-7711.9,-9741.2,-17665,126.5,4245,3994.5,5713.2
-8914.1,-7701.7,-9739.9,-17660,124.7,4240.3,4004.1,5707.8
-8910.9,-7698.4,-9737.4,-17654.7,125.3,4239.8,4009.6,5704
-8909.1,-7702.3,-9742.1,-17652.4,120.1,4237.8,4005.8,5694.6
-8911.1,-7704.4,-9745.2,-17652.7,113.8,4234.4,4003.4,5687.6
-8913.4,-7708.6,-9745.3,-17661,112.1,4232.7,4003.7,5686
-8915,-7717.6,-9744.2,-17669.6,109.7,4230.6,4005,5685.1
-8917.9,-7713.9,-9741.6,-17665.8,103.4,4222.1,4012.3,5678.3
-8915.4,-7715.9,-9737.4,-17662.7,105.9,4222.3,4012.8,5678.8
-8912.1,-7717,-9735.5,-17661.1,111.3,4227.2,4010.3,5683.8
-8907.2,-7713.3,-9730.2,-17665.3,114.1,4229.1,4011.4,5685.2
-8900.3,-7713.4,-9731,-17669.6,109.2,4222.8,4014.8,5673
-8900.5,-7720.4,-9740,-17667.8,106.4,4222.2,4009.6,5668.7
-8901.4,-7725.5,-9744.9,-17667.5,106.7,4223.5,4003.2,5670.5
-8905.6,-7732.2,-9747.5,-17673.3,108.2,4226.1,3998.3,5673.9
-8909,-7730.9,-9749.6,-17674.5,120,4238.6,3989,5691.6
-8908.4,-7721,-9743.1,-17671.7,125,4241.4,3992.4,5702.1
-8906.2,-7716.6,-9735.3,-17665.9,122.7,4236.2,3998.1,5698.5
-8900.6,-7712.8,-9728.6,-17663.9,120.2,4230.5,4003.9,5692.3
-8895.2,-7709.3,-9724.2,-17670.7,108.2,4212.6,4014.1,5668.1
-8896.1,-7714.3,-9725.2,-17672.5,102.8,4208.3,4010,5657.9
-8897,-7720.3,-9730.2,-17673.4,102.9,4211.1,4001.4,5660.3
-8900.8,-7724.7,-9736.8,-17677.5,103.4,4213,3995.9,5664.9
-8910.9,-7726.5,-9742.1,-17679,107.8,4218.8,3994.6,5676.9
-8912.1,-7722.5,-9739.6,-17681.6,111.4,4220.9,3995.3,5682.1
-8908,-7720.4,-9736,-17683.1,113.1,4221.4,3995.1,5683.7
-8901.7,-7717.7,-9731.8,-17679.8,115.6,4222.1,3997.2,5685.2
-8893.8,-7711.2,-9724.6,-17676.7,119.4,4224.4,4000,5687.7
-8890.4,-7712.7,-9722,-17678.2,120.5,4225.9,4000.7,5687.8
-8890,-7714.7,-9722.7,-17682,119.4,4224.6,4001.1,5685.5
-8890.8,-7713.9,-9728.7,-17685,119,4226.2,3997.3,5686.7
-8892.6,-7725.3,-9736.1,-17688.4,127.3,4239.2,3987.4,5704.5
-8892.7,-7723.4,-9730.8,-17694.6,127.6,4236.9,3993.7,5706.3
-8889.9,-7716.2,-9724.1,-17696.9,124.6,4232.2,4001.2,5701.3
-8886.2,-7711.7,-9721.7,-17693,123,4230.6,4004.3,5697.5
-8880.5,-7713.2,-9720.4,-17688.8,121.3,4230.4,4004.1,5691.5
-8876.3,-7714.9,-9719.4,-17689.2,120,4230.2,4007,5687.6
-8877.9,-7713.3,-9722.2,-17685,118.8,4228.6,4007.7,5684.5
-8878.1,-7713,-9727.9,-17685,114.9,4224.9,4006.9,5680.4
-8878.6,-7710.9,-9731.7,-17687.9,106.6,4214.4,4012.8,5670.8
-8882.3,-7712.8,-9733.2,-17686.1,103.8,4210.5,4008.9,5667.2
-8882,-7715.2,-9733.1,-17690.5,106.4,4214,4003.7,5671.1
-8879.8,-7711.2,-9731.3,-17686.4,107.3,4215,4002.2,5672.1
-8871.4,-7710.7,-9725.8,-17690.7,102.6,4209.4,4005.9,5660.8
-8870.1,-7711.6,-9723.2,-17693.3,103.1,4210.8,4003.8,5658.9
-8873.9,-7711.5,-9723.6,-17690.2,107.3,4215.1,4001.7,5663.3
-8875.3,-7715.9,-9727.6,-17692.6,110.7,4218.1,3997.4,5666.1
-8877.2,-7718.3,-9730.2,-17695.9,123,4231.4,3988.6,5682.2
-8880.2,-7718,-9729.8,-17696.9,125.1,4233.8,3989.1,5690.9
-8881.4,-7715.8,-9728.5,-17694.2,120.6,4229.1,3993.2,5687.3
-8880.2,-7713.3,-9726,-17692.1,114.9,4222.8,3997.6,5680.8
-8878.2,-7710.1,-9724.5,-17694.3,101,4204.3,4007.8,5658.2
-8876.2,-7708.7,-9726.2,-17691.3,98.4,4202,4007.3,5651.1
-8875.8,-7710,-9729.1,-17687.3,102.2,4207.9,4002.9,5656.7
-8880.8,-7714.7,-9731.9,-17686.6,105.4,4213,4001,5663.4
-8891.4,-7720.9,-9733.3,-17691.7,111.2,4221,4002.7,5676.4
-8892.7,-7721.2,-9733.2,-17698,110.5,4222.8,4000.1,5680.4
-8891.6,-7717.8,-9740,-17697.2,105.9,4220.7,3993.7,5679.1
-8886.8,-7722.3,-9737.6,-17699.4,108,4221,3995.4,5680.8
-8880.7,-7715.8,-9730.1,-17697,110.8,4222.7,3996,5684.2
-8877.4,-7709.7,-9730.1,-17696.3,112.1,4224.6,3996.2,5685.6
-8876.5,-7704,-9731.5,-17690.6,112,4224.5,3997.8,5684.7
-8875.5,-7701.8,-9732.3,-17690.6,115,4229,3997,5688.1
-8876.6,-7704.8,-9738.6,-17700.6,124.9,4243.5,3988.2,5706.3
-8880.1,-7703,-9737,-17701.1,125.1,4241.1,3994.6,5706.5
-8883.7,-7700,-9738.2,-17697.4,119.3,4234.3,3998.2,5699.4
-8884.9,-7701.1,-9739.2,-17696.8,116.5,4231.5,3998.6,5695
-8882.8,-7707.1,-9742.7,-17699.1,114.1,4230.8,3996.8,5688.8
-8880.9,-7704.4,-9743.6,-17699,112.1,4229.2,3998.7,5685.2
-8880.4,-7700.6,-9741.6,-17693.5,113.5,4229.7,4002.6,5685.9
-8881.7,-7699.6,-9738.1,-17688.3,112.5,4227.9,4006.3,5684.6
-8882.5,-7694.2,-9733.8,-17687.8,104.6,4218.8,4013.3,5675.7
-8885,-7693.4,-9733.9,-17682.6,101.4,4215.4,4009.9,5672
-8889,-7695.1,-9737.9,-17685.5,101.9,4217.5,4003.9,5674.8
-8892.2,-7698.6,-9740.4,-17689.8,100.5,4216.9,4000.3,5674.2
-8891.1,-7701.4,-9741.2,-17688.2,93,4208.6,4001.2,5661.4
-8891.6,-7702.5,-9743.5,-17686.1,92.5,4208.7,3998.5,5659.2
-8891.6,-7700,-9742,-17686.1,97.2,4214.1,3996.5,5665.9
-8892.8,-7698.8,-9740.7,-17685.2,102.6,4219.5,3994.8,5672.1
-8894.5,-7696.9,-9739.9,-17680.6,117.5,4234.8,3989.9,5689.9
-8894.1,-7695.6,-9740.8,-17679.6,123,4238.5,3993.2,5699
-8894.2,-7696.4,-9739.3,-17681.2,119.2,4233.9,3997.5,5694.4
-8897.5,-7696.8,-9740.7,-17685.8,112.7,4226,3999.6,5686.6
-8894.8,-7699.3,-9744,-17695.8,98.1,4207,4007.5,5663.6
-8895.3,-7702.4,-9748.5,-17696.7,94.3,4203.3,4005,5655.6
-8895.9,-7706.8,-9748.8,-17694.6,99,4209.1,4001.4,5661.8
-8895.7,-7703.2,-9753.2,-17688.1,104.2,4215.3,4001.2,5670
-8902.2,-7702,-9754.3,-17683.3,112.4,4224.2,4005.2,5684.1
-8901.9,-7701.1,-9749.4,-17686.6,114.6,4227.3,4005.7,5689
-8900.7,-7702.3,-9748.2,-17691.5,112,4226.5,4002.2,5688
-8900,-7703.8,-9747.8,-17691.2,110.2,4224.6,3999.2,5686.4
-8900,-7704.4,-9747.5,-17687.7,111.1,4224.6,3997.6,5688.2
-8900.4,-7703.8,-9747.8,-17686.9,110.7,4223.9,3995.3,5688.6
-8898.2,-7702.5,-9748.9,-17687,111.1,4223.5,3996.9,5688.9
-8899.3,-7701.9,-9747.7,-17686.8,115.9,4229.1,3998.5,5694.5
-8898.3,-7701.6,-9748.3,-17685.1,127.1,4245,3991.9,5714.7
-8895.2,-7692.3,-9741.9,-17684.7,128.8,4243.7,4000.2,5716.2
-8894,-7691.3,-9739.9,-17685.6,124.3,4237.2,4005.2,5707.6
-8895.5,-7689.4,-9741.4,-17683.5,120.7,4233.5,4004.5,5700.5
-8896.1,-7697.7,-9746.2,-17683.5,115.3,4230.7,3999.3,5690.9
-8898.4,-7703.2,-9747.9,-17688.8,110.2,4227,3996.9,5685.3
-8899.1,-7699.6,-9744.5,-17691.4,108.8,4224.5,3997.4,5684
-8899.1,-7701.5,-9739.4,-17693.9,108,4223.7,4001.6,5684
-8899.9,-7695.2,-9734.1,-17691.9,104,4217.2,4012.1,5678.4
-8896.6,-7691.7,-9731.7,-17688.2,107,4218.4,4013.8,5678.4
-8896.6,-7690.9,-9732.5,-17688.7,108.3,4222.4,4009.3,5681.4
-8899.5,-7687.7,-9734.1,-17689.6,105.7,4221.6,4005.7,5679
-8895.5,-7695.9,-9735.3,-17694.7,98.9,4214.2,4007.6,5665.7
-8897.9,-7700.6,-9745,-17701.9,95.5,4213.3,4002.7,5662.5
-8902.8,-7704.2,-9751.7,-17700.2,95.8,4215.8,3998.1,5666.5
-8904.3,-7706.3,-9752.2,-17698.3,99.8,4220.5,3995.8,5672.3
-8904.9,-7703.2,-9746.9,-17695.7,116.9,4236.6,3992.9,5692.1
-8905.9,-7695,-9742.4,-17693.6,122,4241.3,3997.5,5702.3
-8904.4,-7687.8,-9740.6,-17691.6,119.6,4238.2,4004,5699
-8900.3,-7696.8,-9741.3,-17691.2,116.6,4233.7,4010.4,5692.7
-8898.6,-7699.4,-9747.9,-17698.6,103.4,4216.8,4019.4,5669.8
-8899.2,-7702.1,-9755,-17703.7,95.9,4211.2,4012.3,5659.5
-8901.5,-7706.8,-9758,-17706.9,96.8,4214.5,4004.7,5664.2
-8906.2,-7708.3,-9758.7,-17704.9,98.3,4218.6,4000.5,5671.8
-8914.5,-7709.2,-9757.6,-17699.3,104,4226.1,4002,5685.6
-8913.7,-7707.1,-9751.3,-17695.7,107.5,4228.7,4003.2,5690.7
-8909.8,-7703.6,-9745,-17692.1,110,4230.1,4003.9,5692.4
-8905.3,-7703.2,-9740.1,-17689.2,111.5,4230.7,4004.5,5692.8
-8901,-7705,-9739.6,-17686.9,112.7,4230.8,4003.3,5693
-8903.8,-7706.9,-9746.6,-17684.5,112.8,4230.6,4001.5,5692.2
-8906.5,-7707.2,-9752.4,-17688.6,111,4228.4,3999.8,5690.2
-8906.5,-7708.2,-9756.9,-17698.1,114,4232,3998.4,5694.7
-8907.3,-7710.6,-9764.1,-17697.7,125.3,4247.1,3990.8,5715.3
-8904.7,-7697.6,-9757.2,-17694.1,127.5,4245.4,3998.1,5717.7
-8899.5,-7693.2,-9746.9,-17690.6,125.9,4240.8,4005.8,5712.1
-8896,-7690.1,-9741.8,-17688.4,123.9,4238.3,4006.9,5706.1
-8895.3,-7695,-9741.6,-17688.9,119.2,4235.1,4002.3,5696.1
-8896.4,-7699.7,-9742.8,-17689,113.4,4231.4,4000.2,5689.2
-8899,-7700.6,-9745.7,-17695.3,110.7,4228.3,4000,5686.2
-8901.2,-7701.3,-9747.2,-17698.6,107.5,4225.2,4001.1,5684.7
-8902.3,-7699.2,-9742,-17698.5,100.3,4215.4,4007.8,5676.7
-8902.5,-7697.2,-9738.9,-17696.1,101.5,4214.4,4008.6,5675.8
-8901,-7695.3,-9741.7,-17688.6,104.7,4219.1,4005.4,5680.6
-8898.6,-7693.5,-9738.5,-17689.8,107.8,4221.3,4007.4,5682.2
-8892.3,-7693.9,-9736.3,-17696,103,4216.1,4011.4,5670.5
-8893.9,-7702.5,-9743.9,-17693.2,100.1,4215.9,4005.9,5666.9
-8896.4,-7706.8,-9751.6,-17690.6,99.4,4217.7,3999.7,5669.7
-8899,-7709.8,-9756.8,-17693.8,100.4,4220.3,3994.3,5672.6
-8902.9,-7711.3,-9756.3,-17693.8,112.3,4233.5,3985.9,5689.9
-8904.9,-7706.9,-9751.4,-17693.5,117.1,4237.3,3989.6,5700.9
-8905.4,-7697.7,-9748.1,-17690.9,115.8,4234.2,3997.1,5698.7
-8903.6,-7687.8,-9744.3,-17689.9,112.7,4229.2,4002.8,5692.8
-8898.8,-7687.2,-9739.8,-17697.5,101,4211.7,4013.8,5670.1
-8899.8,-7692.1,-9743.1,-17697.3,97,4208.1,4011.1,5661.1
-8904.1,-7696.9,-9748.5,-17701.5,99.5,4212.8,4005.1,5665.9
-8910,-7700.8,-9756.6,-17707.9,100.3,4216.3,4000.2,5671.5
-8922.1,-7699.7,-9762.5,-17707.3,103.1,4221.6,3997.7,5683.4
-8923.2,-7702.2,-9759.3,-17702.7,105.6,4223.7,3998,5689.2
-8920.3,-7701,-9755.3,-17699.5,106,4223.7,3996.8,5690.1
-8913.6,-7697.3,-9748.2,-17697.9,109.1,4224.9,3998.5,5691.4
-8907.9,-7693,-9742.4,-17694.7,113.3,4226.6,4000.5,5694.2
-8907.6,-7693,-9742.4,-17694.7,115,4228.8,4001.3,5695
-8909.9,-7696.4,-9742.1,-17695.1,115.6,4228.8,4003,5693.5
-8912.7,-7698.4,-9747.5,-17698.6,116.4,4231,3999.4,5695.4
-8914.7,-7701.7,-9758,-17702.1,123.7,4243.7,3987.4,5712.6
-8914,-7699.9,-9755.1,-17703.4,123.6,4241.1,3992.4,5713.3
-8914.6,-7697,-9752.3,-17700.4,122.2,4237.1,4000.6,5708.4
-8913.6,-7694.3,-9749.7,-17696.4,122.1,4235.7,4003.6,5704.6
-8907.7,-7697.7,-9747.4,-17698.5,120.7,4235.4,4003.3,5698.3
-8902.7,-7698.9,-9740.9,-17704.5,119.3,4234.4,4005.8,5693.5
-8902.9,-7698.7,-9741.2,-17705.8,117.5,4232,4006.1,5689.9
-8909.3,-7696.3,-9745.8,-17706.1,115.4,4229.2,4008.2,5686.9
-8915.2,-7685.3,-9747.2,-17706.7,105.9,4217.9,4013.2,5676.4
-8917.8,-7687.4,-9746.9,-17711.7,104.5,4215,4010.8,5673.3
-8918.3,-7697.6,-9747.5,-17711.9,107.5,4218.5,4006.9,5677.2
-8918.6,-7701.6,-9747.8,-17708.8,108.9,4219.8,4006.6,5679
-8913.9,-7698.9,-9744.7,-17715.3,104.8,4214.1,4010.8,5668.6
-8910.6,-7694,-9744.4,-17712.3,104.4,4215.1,4009.1,5666.4
-8911.1,-7692.2,-9748,-17706.4,107.5,4218.8,4006.2,5669.2
-8913.3,-7697.6,-9753.6,-17706.1,110.9,4223.2,4002.3,5672.9
-8918.1,-7700.1,-9755,-17706.9,124.6,4237.4,3994.9,5690.7
-8922.7,-7698.7,-9755.6,-17710.5,128.1,4240.5,3995.9,5699.9
-8923.8,-7694,-9756.7,-17711.3,122.7,4234.6,3998.4,5694.6
-8920.2,-7691.2,-9756.3,-17708.3,118.3,4227.9,4002.3,5688
-8915.7,-7697.2,-9750.3,-17712,106.4,4211,4013.8,5667
-8914.8,-7695.1,-9748.9,-17712,104.3,4209.6,4013.7,5660.1
-8914.9,-7696.1,-9746.4,-17711.2,108.2,4216,4009.9,5666
-8919,-7698.7,-9748.4,-17713.6,111.6,4221.5,4007.7,5673.4
-8929.4,-7701.4,-9754,-17710.5,115,4227.9,4006.8,5685
-8929.6,-7703.8,-9757.1,-17709.3,114.6,4227.9,4004.3,5687.6
-8931,-7706.9,-9758,-17713.4,113.3,4226.5,4000.9,5686.6
-8929.2,-7703.3,-9753.7,-17714.3,114.8,4227.6,4001.6,5688.8
-8924.7,-7692.9,-9750.1,-17708.9,119.2,4230.1,4003.5,5693.2
-8920.3,-7685.8,-9749.1,-17701.1,124.7,4234.1,4008.5,5699.1
-8913.5,-7682.3,-9743.9,-17696.9,130.9,4237.9,4016.5,5703.8
-8909.4,-7683,-9746.8,-17693.1,134.2,4242.2,4015.4,5708.9
-8908.5,-7689.6,-9752.1,-17695.7,143.3,4256.7,4005.2,5728.5
-8910.2,-7686.3,-9745.3,-17703.8,143.5,4254.5,4010.6,5730.3
-8914.5,-7687.8,-9743,-17700.7,136.2,4246.4,4012.2,5722.3
-8920.1,-7693,-9748.8,-17701.2,128.3,4240.3,4007.9,5714.3
-8922.9,-7698.5,-9757.8,-17703.4,120.2,4236,4001,5704.2
-8922,-7698.2,-9757.9,-17709.3,116,4233.7,4000.9,5699.1
-8921.2,-7693.6,-9756.7,-17712.1,115.7,4232.4,4003.7,5696.9
-8922.2,-7689.4,-9756.5,-17707.9,114.9,4230.9,4007.6,5694.6
-8924.9,-7687.6,-9754,-17708.3,110.2,4223.3,4017.6,5686
-8925.4,-7693.1,-9757.8,-17708.8,108.1,4220.4,4015.6,5681.4
-8926.9,-7698,-9760.4,-17710.8,107.7,4222.8,4009.2,5682.7
-8929,-7699.7,-9762.5,-17718.1,106.2,4222.3,4005.8,5681.6
-8927.4,-7700.6,-9761.7,-17722.9,100.1,4215,4006.3,5669
-8926.2,-7704.1,-9762.7,-17720.4,98.9,4214.7,4002.5,5665.9
-8927,-7702.1,-9761.6,-17717.9,102.3,4219,4000.7,5671.1
-8928.5,-7700.9,-9759.6,-17714.6,107,4223.2,3998.7,5675.3
-8931.7,-7697.9,-9758.9,-17708.5,121.7,4238,3993.2,5691.8
-8933.5,-7691.2,-9757.1,-17707.3,124.3,4240.5,3994.3,5698.8
-8932.2,-7692.1,-9757.2,-17708.2,119.9,4235.3,3998.6,5693
-8937.1,-7694.7,-9759.6,-17711.9,115.4,4229.1,4002.8,5685.9
-8938.1,-7695.8,-9760,-17723.3,99.9,4209.8,4009.8,5661.4
-8936.1,-7701,-9762.3,-17724.8,97,4206.8,4008.4,5654.3
-8937.6,-7701.9,-9764.6,-17720.1,99.5,4211.2,4002.7,5658.8
-8944.1,-7702.1,-9764.5,-17715.4,103.7,4215.5,4001.1,5665.7
-8951.6,-7698.9,-9763.7,-17711.6,111.9,4223.8,4004.6,5679.9
-8948,-7695.9,-9762.4,-17711.3,114.5,4226.1,4004.9,5683.8
-8946.4,-7696.2,-9763.8,-17714.1,114.3,4226.4,4002.7,5683.7
-8945.9,-7696.6,-9765.6,-17716.6,112.8,4225.5,4000.7,5682.3
-8942.9,-7694.4,-9767.7,-17713.8,111.2,4224.3,3996.9,5682.7
-8944.7,-7695.6,-9767.6,-17713.7,111.2,4224.6,3995.6,5684.9
-8945.9,-7693.5,-9765.5,-17714.1,112,4224.3,3997.4,5685.2
-8943.2,-7688.1,-9764.5,-17714.1,114.3,4227.7,3996.2,5688.4
-8938.8,-7693.4,-9763.2,-17713.7,126.1,4244.3,3990.1,5709.3
-8936.4,-7694,-9754.5,-17714.2,129.3,4244.6,3999.3,5712.2
-8935,-7692.4,-9752.6,-17713.5,126.3,4239.5,4005.9,5705.6
-8934.4,-7696.4,-9754.9,-17713.6,123.7,4236.6,4006.9,5700.1
-8934.5,-7703.3,-9762.9,-17711.9,117,4232.8,4000.2,5690.5
-8935.5,-7704.8,-9767.1,-17716.4,112,4229.3,3998.3,5685.1
-8934.5,-7700,-9763.6,-17724.5,111.7,4227.8,3999.9,5684.2
-8935.2,-7697.9,-9760.6,-17721.3,110.2,4225.1,4002.3,5682.2
-8935.4,-7689.7,-9755.6,-17714.8,105.7,4217,4012.2,5674.9
-8932.7,-7684.1,-9755.4,-17708.8,107.8,4216.7,4013.8,5673.7
-8928.4,-7689.6,-9755.9,-17714.7,113.1,4221.9,4012.2,5678.3
-8930.8,-7693.5,-9758,-17716.5,112.9,4222.1,4010,5677.6
-8929.7,-7698.2,-9758.1,-17720.9,104,4213.6,4008.6,5663.7
-8933.3,-7704.9,-9762,-17722.4,100.9,4212.9,4003.3,5660.5
-8935.4,-7709.1,-9762.8,-17725.6,102.2,4215.9,3998.9,5664.7
-8936.6,-7708.6,-9760,-17727.3,106.4,4220,3996,5669.2
-8937.1,-7701.6,-9758.7,-17723.4,119.1,4232.8,3989.1,5685.7
-8932.1,-7695,-9755.2,-17717,124.5,4236.3,3994.3,5694.5
-8925.6,-7694.9,-9750.5,-17716,123.6,4233.2,4001.6,5691.8
-8923.5,-7693.5,-9752.6,-17717.4,119.9,4227.6,4006.1,5685.2
-8924.1,-7697.1,-9753.1,-17725.6,104.5,4208.1,4013.2,5660.4
-8923.9,-7706.1,-9755.7,-17729.7,98.3,4203.1,4007.8,5650.4
-8924.4,-7713.5,-9755.8,-17736.5,99.3,4206.8,4000,5654.4
-8927.8,-7712.2,-9758.4,-17740.8,101.8,4210.6,3995.9,5661.7
-8935.8,-7710.3,-9760.3,-17735,108.8,4218.2,3997.3,5675.8
-8934.9,-7706.2,-9752.3,-17728,111.6,4220.1,3997.5,5679.9
-8929.1,-7701,-9747.3,-17721.8,113,4221,3997.9,5679.9
-8925.1,-7703.3,-9747,-17720.8,115.2,4221.6,3999.8,5678.8
-8920,-7705,-9745.6,-17719.6,117.4,4221.7,3999.9,5678.7
-8922.6,-7702.9,-9750,-17723.6,116.5,4221.3,3997,5677.9
-8926.1,-7705.2,-9752,-17727.2,114.3,4219.5,3994.9,5675.8
-8927.8,-7708.1,-9754.3,-17729.3,113.8,4221.8,3990.9,5679
-8927.4,-7707.9,-9755.3,-17730.4,125.3,4237.4,3985,5699.6
-8925.5,-7703.9,-9746.9,-17726.8,127.3,4235.6,3993.3,5701.4
-8923.5,-7696.7,-9743.7,-17718.2,124.3,4230.8,3999.6,5695.2
-8923.6,-7694.3,-9743,-17713.3,125.2,4230.6,4004.1,5692.1
-8922.8,-7699.7,-9745.6,-17720.2,123,4230.5,4002.7,5685.2
-8922,-7700.9,-9746.8,-17724.3,117,4227,3999.9,5678.2
-8927,-7704,-9748.5,-17725.8,114.4,4224,3999.2,5675.8
-8931.6,-7709.5,-9750.8,-17725.3,110,4220.7,3999.2,5673.8
-8933.1,-7703.5,-9748.1,-17725.7,102.8,4211.5,4007,5666.1
-8931.6,-7702,-9744.7,-17725,104.3,4211,4008.8,5665.7
-8932.3,-7702.4,-9745.8,-17724.2,108.4,4216.3,4006.2,5671.2
-8932.2,-7697.1,-9743.7,-17720.6,110.6,4217.6,4006.5,5670.4
-8926.5,-7695.9,-9741.1,-17721.5,105.4,4210.6,4008.9,5656.9
-8924.3,-7699.6,-9750.2,-17723.2,102.4,4209.7,4004.1,5652.3
-8927.9,-7700.9,-9758.5,-17721.6,102,4211.2,3997.9,5654.9
-8933.7,-7704,-9766.7,-17720.6,102.8,4213,3991.5,5657.9
-8935.8,-7708.2,-9769.8,-17725,117.9,4226.9,3985.3,5676.4
-8935.2,-7699.7,-9765.4,-17725.1,123.3,4230.8,3988.8,5687.4
-8933.3,-7688.8,-9757.4,-17720.5,120.7,4227.3,3994.9,5684.6
-8932,-7684.2,-9751.8,-17716.7,116,4221.6,3999.3,5678.4
-8926.9,-7692.9,-9744.3,-17721.5,103.4,4204.4,4009.9,5655.5
-8925.5,-7701,-9750.8,-17722.2,99.1,4201.4,4007.6,5646.8
-8927.1,-7703,-9761,-17720.7,99.9,4205.3,3999.8,5650.7
-8933.5,-7708.8,-9765.5,-17719.9,99.1,4207.6,3994,5655.5
-8945.9,-7713.9,-9764.8,-17718.3,100.8,4212.4,3991,5667
-8946.8,-7713,-9759.4,-17716.8,101.9,4213.8,3989.8,5671.7
-8942,-7710.3,-9752.8,-17718.3,102.8,4213.6,3988,5671.9
-8936.4,-7706.2,-9743.3,-17718.9,105.3,4214.4,3990.1,5673.1
-8929.1,-7703.3,-9736.2,-17714,109.6,4216.8,3992.8,5676.2
-8928.8,-7699.8,-9739.2,-17716.1,112.2,4219.1,3994.3,5677.2
-8930.1,-7696.1,-9742.8,-17716.6,110.3,4217.8,3993.1,5674.5
-8933.1,-7698,-9749.4,-17711.4,108.7,4218.8,3987.6,5675.2
-8936.3,-7704.2,-9758.4,-17712.3,116.9,4232.6,3978.7,5693.9
-8936.8,-7701.7,-9754,-17718.3,118.3,4230.7,3986.1,5696.3
-8936.1,-7702,-9748,-17714.1,114.7,4225.3,3991.8,5690.6
-8934,-7702,-9743.5,-17712.4,114.7,4224.5,3996.2,5688.6
-8929.6,-7699.9,-9742.8,-17713.6,113,4224.5,3996.5,5682.8
-8926.5,-7695.3,-9745.1,-17710.5,109.6,4223.2,3997.9,5678.1
-8927.3,-7696.3,-9747.5,-17711.8,109.2,4223.4,4000.6,5677.1
-8933.3,-7695,-9751.1,-17713.9,105.8,4221.2,4001.2,5674.9
-8938,-7696.4,-9750.5,-17716.7,97.5,4211.7,4006.9,5666.8
-8937.7,-7699.7,-9754.5,-17716.3,96.2,4210.1,4003.1,5665.7
-8937.3,-7701.3,-9758.1,-17712,97,4212.9,3996.5,5670.1
-8935.6,-7699.7,-9756.6,-17709.9,98.6,4213.8,3996.8,5671.4
-8929.2,-7697.1,-9749.5,-17719,96.2,4208.3,4003.1,5660.5
-8925.1,-7699.9,-9746.1,-17723,97.3,4209.5,4002,5658.3
-8926.1,-7701.5,-9748.1,-17719.6,99.9,4213.1,3998.4,5662.1
-8929.3,-7704.9,-9750.8,-17721,103.4,4216.7,3994.6,5665.4
-8933.3,-7709.4,-9753.6,-17722.3,115.6,4228.6,3985.6,5680.9
-8936,-7710.4,-9751.8,-17723.5,119.1,4230,3987.4,5688.2
-8937.3,-7711.3,-9749.5,-17724.6,115,4224.5,3990.8,5683.5
-8936.3,-7708.7,-9747.5,-17723.7,109.9,4218.3,3993.8,5677.3
-8931.8,-7706.4,-9746,-17728.4,96.3,4200.5,4002,5654.9
-8929.8,-7706.9,-9748.9,-17727.9,93.1,4197.3,3999.7,5646.8
-8925.2,-7704.1,-9748.7,-17719.6,98.4,4203,3996.2,5651.4
-8930.7,-7702.4,-9752.2,-17716.4,101.7,4207.5,3993.5,5656.3
-8940.8,-7712,-9757.8,-17718.9,108.1,4214.9,3994.8,5669.2
-8940.7,-7711.7,-9761.3,-17721.5,109.4,4217,3993.5,5673.3
-8940.6,-7713.7,-9764.9,-17721.6,107.5,4215.9,3990.1,5672.4
-8938.2,-7711.6,-9760.3,-17721.8,106.2,4214,3988.1,5672.2
-8934.4,-7704.7,-9750.3,-17720.8,109.8,4215.2,3990.1,5675.1
-8932.1,-7703,-9742.7,-17719.5,113.4,4218.2,3993.4,5678.2
-8930,-7703.3,-9737.7,-17716.1,114.6,4219.3,3995.8,5678.5
-8930.4,-7704.4,-9738.9,-17715.4,115.6,4222.2,3992.9,5680.9
-8933.7,-7709.2,-9749.1,-17718.2,121.9,4233.9,3981.9,5696.8
-8935.2,-7706.1,-9745.4,-17716.6,121.5,4230.8,3987.8,5696.4
-8935.5,-7701.8,-9745.8,-17723.9,118.1,4225.3,3993.4,5689.8
-8932.4,-7697.2,-9747.5,-17729.5,115,4222.2,3993.7,5684.9
-8928.5,-7703.7,-9752.2,-17726.4,111,4220.5,3989.8,5678.3
-8926.3,-7704.9,-9749.2,-17728.5,108.6,4219.1,3991.2,5674.3
-8924.1,-7702.9,-9740.4,-17727.5,109.8,4219,3995,5673.8
-8923.3,-7702.8,-9736.9,-17723.6,109.3,4218.4,3999.2,5673.3
-8923.9,-7697.2,-9736.9,-17720.2,103.8,4210.9,4007.6,5666.1
-8928.2,-7693.7,-9744.4,-17716.5,103.6,4209.8,4006.5,5664.3
-8929.9,-7701.7,-9752.8,-17718.8,104.8,4213,4000.7,5667.4
-8928.6,-7710.1,-9755.4,-17722.4,104.1,4213.3,3998,5667.8
-8926.8,-7710.1,-9754.5,-17726.6,96.2,4204.6,3997.3,5654.5
-8925.7,-7713,-9753.6,-17728.4,95.7,4204.7,3994.4,5652
-8924.1,-7713.1,-9749.2,-17725.1,99.7,4209.3,3992.6,5657.9
-8924.3,-7711.3,-9748,-17725.6,104.5,4214.2,3990.3,5662.7
-8924.6,-7711.9,-9743.1,-17724.2,119.1,4228.6,3985.5,5680.1
-8926.2,-7709.5,-9738.3,-17719.6,122.1,4230,3987.9,5686.3
-8926.7,-7707.6,-9739.7,-17717.1,116.5,4223.4,3989.8,5679.7
-8929,-7710.3,-9741.2,-17721.2,110.9,4216.6,3992.6,5672.5
-8931.1,-7711.3,-9742.6,-17732.7,96.3,4197.6,3999.7,5649.7
-8930.2,-7713.9,-9743.1,-17735.6,92.3,4194.8,3996.2,5643
-8927.9,-7716.5,-9743.1,-17735,95.8,4200.6,3991.6,5649.9
-8931.2,-7714.7,-9746.2,-17729.4,100.6,4206.4,3990.9,5658.3
-8938.3,-7720.8,-9744.9,-17724.4,109.5,4216.1,3995,5673.4
-8936.8,-7721.2,-9741.5,-17724.7,111.9,4218.4,3994.8,5677.6
-8935.6,-7717.4,-9744.3,-17725.4,110.5,4217.2,3992.2,5675.4
-8935.2,-7719.9,-9746.1,-17723.7,108.6,4215.8,3990,5673.2
-8934.3,-7720.3,-9743.7,-17724.1,108.1,4215,3987.6,5673.5
-8934.6,-7720.3,-9746.1,-17722.7,107.6,4214.6,3985.9,5674.5
-8934.3,-7717,-9749.6,-17718.6,108.1,4214.3,3987.9,5674.4
-8934.6,-7713.2,-9750.2,-17715.6,110.1,4217.9,3987,5678.1
-8932.4,-7711.3,-9750.5,-17718.8,122.1,4232.9,3982.9,5697.2
-8931.1,-7706.2,-9745.3,-17716.1,125.6,4231.5,3993.4,5698.4
-8933.4,-7704.9,-9740.9,-17716.3,122.8,4226.1,3998.6,5691.2
-8934.3,-7705.1,-9741.3,-17719,119.3,4222.4,3997.5,5684.6
-8933.6,-7711.9,-9745.6,-17720.7,113.3,4218.8,3990.8,5675
-8933.8,-7721.1,-9742.7,-17730,108.9,4216.3,3989.1,5670
-8933.9,-7719.9,-9739.4,-17732,108.1,4214.4,3990.3,5669.1
-8933.1,-7717.4,-9738.3,-17727,107,4212.5,3993.6,5668.8
-8934.5,-7711.9,-9732.8,-17721.8,103,4205,4004.5,5662.4
-8932.7,-7712.4,-9728.9,-17717.3,104.9,4205,4006.5,5661.5
-8931.4,-7716.4,-9732.8,-17715.4,107.7,4208.9,4002.2,5664.5
-8930,-7719.9,-9740.8,-17717.4,108.5,4210.1,4001,5664.1
-8926,-7721.6,-9744.9,-17726.8,100.6,4201.7,4002.4,5649.5
-8928.7,-7726.8,-9751.7,-17729.7,96.4,4198.5,3996.7,5644
-8932.1,-7726.7,-9757.7,-17725.9,95.8,4200,3990.3,5647.6
-8930.2,-7725.5,-9758.1,-17730.3,99.3,4204.8,3987.4,5654
-8930.4,-7722.6,-9752.6,-17736.8,117.5,4223,3984.2,5676.7
-8932,-7718.1,-9748.9,-17729.1,125.5,4230.9,3988,5690.6
-8929.4,-7716.6,-9744,-17718.7,124.4,4228.3,3994,5687.7
-8927.9,-7717.8,-9740.3,-17720,120.1,4221.8,3998.2,5679.5
-8924.5,-7723.4,-9738.1,-17729.2,102.4,4200.7,4005.8,5653.1
-8926.5,-7734,-9744.2,-17732.1,94.1,4193.8,4002.7,5641.4
-8929.9,-7734,-9750.2,-17735.8,92.8,4195.8,3993.9,5644
-8936.7,-7731.5,-9754.2,-17737.5,93.6,4199.1,3988.4,5650.6
-8947.1,-7729.1,-9750.2,-17731.2,101.1,4207.7,3990.8,5665.7
-8942.3,-7725.3,-9742.6,-17730.8,105.1,4210.6,3992.7,5670.9
-8935.1,-7717.2,-9741,-17731.3,106,4210.9,3991.7,5671.4
-8928.1,-7719,-9741,-17728.9,108.8,4212.4,3993.4,5672.3
-8923.7,-7724.5,-9742.1,-17724.4,110.9,4213.6,3992.9,5673.7
-8925,-7724.5,-9748.6,-17724.6,108.3,4212.8,3988.1,5672.5
-8929.1,-7725,-9750.5,-17728,106.8,4211.4,3987.8,5671.1
-8932.4,-7725.4,-9756.4,-17729.8,108.2,4214,3984.5,5674
-8931.2,-7728.2,-9760.1,-17726.3,120.7,4232.8,3972.6,5698.2
-8928.5,-7724.6,-9753.9,-17722.4,123.6,4234.4,3977.3,5704
-8925.2,-7718.3,-9746.6,-17724.2,122,4229.4,3988.4,5697.4
-8922,-7716.6,-9744.8,-17719.1,122.2,4227.2,3994.8,5692
-8918.6,-7721.4,-9749.7,-17718.5,118.3,4225.6,3993.5,5683.4
-8920.8,-7722.8,-9752.6,-17721.1,111.9,4221.8,3991.8,5676.1
-8925.2,-7726,-9753,-17723.4,108.8,4218,3991.4,5672.4
-8927.3,-7729.8,-9750,-17730.8,105.6,4214.5,3993,5669.6
-8929.3,-7725.5,-9744.2,-17733.2,99.3,4204.5,4002.1,5661.1
-8926.6,-7724.4,-9743.9,-17732.5,99.8,4201.7,4004,5658.3
-8923.8,-7722.6,-9746.3,-17728.2,104.3,4206.2,4002.8,5663.4
-8920.2,-7720.8,-9742.1,-17725.1,106.5,4207.8,4003.4,5664.3
-8918.4,-7718.9,-9739.8,-17725,99.8,4200,4006,5650.4
-8916.6,-7727.9,-9741.7,-17725,96.4,4198.4,4001.1,5645.2
-8920,-7738.2,-9746.3,-17727,96.6,4201,3994.2,5648.5
-8925.4,-7740.6,-9752.1,-17729.6,97.1,4203.1,3985.8,5650.8
-8928.8,-7741.3,-9750.7,-17727.8,111.1,4217.3,3976.9,5669.8
-8929.2,-7737.5,-9744,-17729.9,118.8,4224.2,3979.9,5684.5
-8927.6,-7729.9,-9738,-17730.9,118.3,4222.8,3986.7,5683.8
-8926.7,-7722.1,-9736.7,-17728.9,114.5,4217.8,3992.8,5677.6
-8923,-7719.4,-9738.1,-17730,100.6,4198.7,4003.7,5652.4
-8922.2,-7723.6,-9740.3,-17727,95,4192.8,4003,5640.9
-8925.6,-7729.5,-9745.2,-17724.7,95.5,4196.4,3995.3,5644.3
-8928.9,-7735.2,-9753.4,-17727.3,95.4,4199.9,3988.9,5650
-8941.2,-7734,-9756.8,-17731,99.5,4206.3,3987.7,5662.4
-8942.8,-7732.4,-9753.3,-17733.7,100.2,4207.6,3986.2,5666.6
-8937.9,-7736.6,-9750.9,-17728.3,101.7,4208.1,3985.5,5667.5
-8934.3,-7728.9,-9750.5,-17720.6,102.8,4208.8,3985.8,5667.7
-8927.3,-7729.3,-9743.4,-17708,106.6,4211.2,3988.1,5670.6
-8921.9,-7732.5,-9740.8,-17708,108.2,4213.4,3988.9,5672
-8917.6,-7729.9,-9745.2,-17713.5,107.2,4212.8,3989,5669.6
-8918.2,-7733.9,-9756.6,-17710,107.5,4215.2,3984.7,5672.1
-8919.7,-7741,-9766.8,-17709.5,117.6,4231.8,3970.7,5694.3
-8923.4,-7739.6,-9764,-17712.8,117.9,4230.4,3973.1,5697.2
-8920.5,-7732.9,-9753.6,-17714.3,113.8,4224.2,3982.1,5690.5
-8913.8,-7731.1,-9748.2,-17716.2,111.9,4221.3,3986.3,5685.3
-8910.1,-7732.7,-9744.3,-17714.2,110,4219.5,3986,5677.1
-8909.4,-7734.2,-9741.9,-17710.1,109,4218.1,3988.4,5672.1
-8912.9,-7735.4,-9743.3,-17707.5,109.6,4216.5,3991.6,5669.1
-8918.7,-7735.8,-9748.5,-17707.6,106,4212.4,3992.3,5665
-8921.4,-7739,-9746.5,-17711.2,98.8,4202.6,4001,5655.5
-8925.1,-7741.1,-9747.4,-17711.6,97.3,4198.1,4000.8,5651.3
-8926.8,-7744.1,-9754.4,-17711.2,99.4,4200.5,3996.1,5654.6
-8924.5,-7741,-9756.8,-17710,102.3,4202.5,3995.4,5656.3
-8920.5,-7737.3,-9757.2,-17710.1,99.2,4197.5,4000,5645.9
-8919.6,-7736.5,-9760,-17709.2,99.4,4198.4,3997.4,5643.9
-8920.1,-7736.1,-9761.3,-17707.1,103.3,4204.1,3994.1,5650.4
-8923.8,-7741,-9762.2,-17708.5,105.7,4208.5,3988.5,5653.7
-8929.3,-7741.7,-9759.6,-17714.8,117.2,4221.6,3979.1,5670.1
-8932.4,-7738.5,-9754.3,-17716.3,118.3,4221.8,3979.7,5676.9
-8930,-7741.6,-9752.4,-17716.7,112.7,4215.7,3982.1,5671.7
-8926.2,-7742.9,-9750,-17715.7,107.7,4209.6,3985.6,5666
-8921.2,-7739.7,-9747.4,-17717.3,94.7,4192.3,3994.6,5644.5
-8919.1,-7739.8,-9747.6,-17714,92.7,4191.1,3994.1,5638.1
-8920.8,-7738.5,-9749.5,-17711.4,96.8,4197.9,3990.3,5644.5
-8924.1,-7738.7,-9752.4,-17711.9,99.8,4202.9,3987.8,5651.3
-8934.5,-7740.2,-9758,-17711.5,102.4,4208.8,3986,5662.6
-8935.9,-7744.5,-9760.7,-17712.9,101.4,4209,3983,5665.3
-8933.6,-7747.5,-9759.4,-17715.4,100.3,4208,3979.9,5664.7
-8933.2,-7742.1,-9758.2,-17715.6,99.8,4207.4,3978.8,5665.1
-8929.1,-7736.7,-9753.9,-17707.3,101.6,4208.6,3979.3,5668.4
-8926.2,-7739.2,-9750.6,-17703.2,104.4,4210.9,3981,5672
-8924.3,-7730.6,-9747.8,-17708.5,106.6,4212.2,3985.2,5672.5
-8922.6,-7728.4,-9749.3,-17709.9,109.6,4216.6,3984.5,5676.3
-8924.2,-7727.3,-9757.6,-17711.5,117,4230.6,3973.1,5694
-8927.9,-7721.3,-9754.8,-17714.5,115,4227.1,3978,5693
-8927.6,-7724.3,-9751.1,-17716.1,111,4219.9,3983.8,5685.1
-8929,-7721.9,-9752.7,-17716,107.5,4215.7,3983.2,5679.2
-8928.6,-7719.6,-9756.7,-17715.6,103.4,4213.8,3979.7,5671.3
