EEG1,EEG2,EEG3,EEG4,EEG5,EEG6,EEG7,EEG8
0,0,0,0,0,0,0,0
4191.5,9404.8,5152.7,-2004.6,93750,3683.2,16459.1,3820.7
4186.6,9400.3,5148.3,-2007.1,93750,3679.6,16466.1,3818.4
4183.6,9397.9,5147.2,-2009.8,93750,3678.6,16471.1,3816.3
4183.4,9399.6,5149,-2009.9,93750,3679.6,16473.7,3814.5
4185.1,9402.9,5148.6,-2008.1,93750,3682.4,16476.2,3813.8
4187.7,9406.7,5148.4,-2006.2,93750,3685.6,16479,3813.3
4191,9409.3,5150,-2005.3,93750,3688,16482.4,3814
4191.3,9411.2,5146.9,-2004.9,93750,3687.3,16487,3814.4
4188.5,9404.9,5147.8,-2007.7,93750,3681.5,16492.3,3811.6
4189.9,9401.5,5151,-2016.4,93750,3674.8,16479.6,3788.8
4187.7,9404.8,5151.6,-2014.4,93750,3677.1,16461.8,3777.8
4176.9,9401,5156.1,-2013.3,93750,3676.9,16460.8,3783.1
4165.8,9401.1,5166.6,-2011.3,93750,3681.4,16459.6,3787.8
4168.5,9405.6,5162.3,-2006.3,93750,3686.3,16458.9,3792.7
4174.5,9408.1,5156.5,-2004.2,93750,3687.1,16461.4,3797.5
4184.7,9405.3,5154.6,-2006,93750,3686.2,16465.2,3800.2
4188.1,9399.6,5145.4,-2008.8,93750,3684,16477.7,3806.6
4182.7,9389.8,5133.1,-2012.9,93750,3673.1,16515.9,3823.4
4181.6,9383.8,5134.1,-2016.7,93750,3661.4,16537.3,3822.9
4175.5,9381.7,5147.7,-2020.1,93750,3658.3,16542.9,3815.2
4180.5,9393.7,5133.5,-2016,93750,3666.5,16540.3,3808.1
4189.2,9405,5125.9,-2008.9,93750,3676.2,16528.5,3799.7
4184,9405.5,5139.1,-2005.4,93750,3678.8,16523,3799.3
4181.4,9405,5144.4,-2005.1,93750,3680.7,16523.5,3803.2
4175.5,9407.4,5142,-2003.8,93750,3679.4,16528.7,3806.8
4175.2,9402.1,5137.9,-2002.6,93750,3673.6,16537.1,3806.4
4178.7,9394.2,5136.6,-2005.9,93750,3670.9,16543.6,3808.7
4176.3,9393.4,5132.8,-2009.2,93750,3668.2,16550.3,3809.6
4175.2,9394.8,5134.2,-2010.5,93750,3669.5,16550.4,3806.3
4177.4,9401.5,5135.6,-2009.3,93750,3676,16540.3,3799.4
4179.1,9405.6,5138.2,-2007.6,93750,3680.1,16535.3,3798.8
4178.1,9407.6,5142,-2006.4,93750,3682.6,16536.9,3802.1
4173,9408.9,5144.2,-2005.4,93750,3684.3,16542.3,3807.4
4169.8,9404.2,5142.6,-2006.6,93750,3683.4,16565.7,3829.2
4167.9,9395.4,5138.9,-2015.7,93750,3678.6,16603.2,3855.4
4168.7,9394.3,5137.6,-2018.9,93750,3675.9,16616.9,3849.8
4174.8,9395,5131.2,-2016.6,93750,3676.7,16617.8,3838.2
4177,9398.2,5129.4,-2014.7,93750,3679,16616.4,3830.1
4178.6,9403.7,5138.5,-2012.1,93750,3684,16613,3825.5
4183.5,9406.2,5143.9,-2009.4,93750,3685.2,16611.5,3823
4188.7,9408.5,5145,-2008.3,93750,3687,16608.4,3817.8
4195.7,9410.6,5149.4,-2011.4,93750,3686.8,16585.7,3794.1
4199.8,9408.6,5156.5,-2008.2,93750,3687.4,16564.7,3784.3
4193.1,9404.9,5151.1,-2006.5,93750,3683.2,16565.3,3790.6
4186.2,9401.9,5145.4,-2007.2,93750,3682,16567,3795.6
4182.7,9404.6,5139.9,-2004.7,93750,3686.3,16564.4,3799.7
4176.3,9404.3,5148.3,-2002.7,93750,3687.3,16563.9,3804.2
4174.2,9405.4,5155.2,-2002.4,93750,3689.9,16563.5,3807
4178.6,9409.1,5154.7,-2001.2,93750,3690.6,16567.7,3811.9
4179.3,9400.5,5157.2,-2005,93750,3681.7,16591.8,3823.4
4177.2,9397.7,5162.4,-2008.8,93750,3676.1,16604.1,3822.1
4185,9408.6,5131.9,-2006.2,93750,3680.1,16605.5,3818
4186.1,9408.1,5125.5,-2006.3,93750,3681.8,16601.8,3813.3
4182.6,9407.9,5139.8,-2006.5,93750,3684,16588.9,3803.2
4179,9410.2,5145,-2004.8,93750,3684.7,16580.9,3800.3
4181.5,9411.2,5151.5,-2003.6,93750,3685.2,16577.6,3802.3
4181.2,9412.4,5157,-2002.7,93750,3687.8,16574.6,3803.4
4181,9412.7,5156,-1999.5,93750,3693.4,16568.6,3799.9
4185.5,9413.2,5150.7,-1997.8,93750,3695.5,16568,3805.2
4183.9,9408.4,5151,-2001,93750,3690.5,16573,3809.9
4182.6,9404.5,5153.6,-2004.2,93750,3686.8,16574.8,3809.3
4180.3,9405.8,5152.4,-2004.5,93750,3685.3,16567.3,3802.2
4181.7,9408.1,5143.2,-2001.5,93750,3687.2,16562.1,3800.6
4185.9,9404.8,5142.1,-1999.8,93750,3687.8,16560.9,3802.3
4185.7,9405.7,5148.3,-1999.1,93750,3690.7,16559.9,3805.4
4182.5,9406.1,5154.3,-1999.7,93750,3694.3,16576.9,3826.8
4180.4,9405.4,5156,-2004.8,93750,3694.7,16610.4,3854.8
4184.2,9406,5159,-2007.6,93750,3690.9,16624.6,3851.4
4185.9,9406,5160,-2007.4,93750,3688.7,16626.7,3840.1
4184.9,9404.2,5157.4,-2007.6,93750,3689.7,16627.4,3831.9
4181.2,9407.1,5154.2,-2006.4,93750,3691.5,16624.7,3826.4
4180.5,9414.9,5146.9,-2001.5,93750,3696.7,16618.8,3822.8
4181.5,9415.4,5149.7,-1998.9,93750,3696.4,16613.7,3818.8
4188.2,9422,5158.4,-2002.8,93750,3698,16586.8,3794.6
4196.9,9428.2,5163.8,-1996.4,93750,3707,16557.9,3785.2
4200.5,9424.7,5159,-1992.1,93750,3705.3,16553.2,3793.7
4201.2,9420.5,5154.6,-1993.1,93750,3700.8,16554.9,3800.9
4201.8,9415.3,5154.5,-1995.5,93750,3698.4,16556.5,3806.1
4198.6,9411.7,5153.2,-1999.8,93750,3693.6,16559.5,3809.9
4195.9,9412.3,5152.1,-2001.7,93750,3692.2,16559.8,3810.6
4194.4,9412.5,5154.7,-2002.2,93750,3691.8,16561.9,3813.5
4186.2,9408.1,5159.8,-2003.5,93750,3687.6,16581.7,3824.7
4179.2,9407.3,5177.8,-2004.9,93750,3688.7,16589.3,3825.1
4183.8,9412,5171.7,-2004.1,93750,3697.5,16586.2,3822.1
4196.1,9418.4,5152.7,-2000.9,93750,3704.1,16580.8,3820.2
4192.6,9422,5160.4,-1998.5,93750,3699.1,16572.8,3813
4187.5,9416.2,5162.7,-1999.5,93750,3694.9,16569,3810.2
4179.3,9412.8,5164.6,-2000.2,93750,3695.1,16564.9,3810.2
4176.8,9414.7,5160.9,-1998.4,93750,3695.8,16561.1,3810.3
4188,9414.1,5158.2,-1995.8,93750,3694.4,16554.9,3805.1
4193.9,9416.5,5158.7,-1995.1,93750,3696.7,16550.9,3807.8
4196.8,9419.8,5165.4,-1995.7,93750,3699.8,16549.1,3811.3
4200.2,9421.2,5169.8,-1998.7,93750,3701.7,16546.7,3811.4
4201.2,9423.6,5173.7,-2000.5,93750,3699.7,16537.3,3803.9
4194.6,9423.2,5171.3,-1999.4,93750,3699,16532.8,3802.5
4187.9,9422.5,5164.1,-1999.7,93750,3697.2,16533.2,3805
4188.5,9423.6,5156.6,-1999.1,93750,3699,16531.4,3807.4
4189.1,9419.4,5152.9,-1999.2,93750,3699.9,16545.6,3827.3
4191.8,9413.7,5155.9,-2005.7,93750,3698.5,16575.2,3853.1
4194.9,9421.2,5164.3,-2006.2,93750,3699.8,16583.6,3849
4200.2,9427.2,5171.6,-2003.1,93750,3703.5,16579.8,3838.3
4205.2,9425.7,5173.6,-2001.6,93750,3704,16576.6,3831.7
4206.8,9423.9,5174.1,-2002.3,93750,3701.3,16574.6,3826.6
4202.5,9423.9,5173.2,-2003.1,93750,3700.1,16571.8,3822.7
4197.9,9419.6,5170.6,-2006.2,93750,3698.2,16567.2,3817.3
4203,9426,5167.2,-2008.7,93750,3701.4,16538.9,3792.9
4208.6,9429.1,5172.5,-2002,93750,3707.2,16510.4,3783.9
4206.1,9426.4,5182.2,-1998.3,93750,3707.3,16503,3791.7
4198.4,9428.1,5194.6,-1994.7,93750,3706.8,16501.5,3799.1
4201.4,9432.7,5179.5,-1990.5,93750,3713.1,16500.1,3805.3
4209,9431.1,5157.5,-1990.4,93750,3715.6,16501.5,3811.4
4199.4,9426.4,5164.8,-1992.5,93750,3710.5,16504.2,3814.7
4191.8,9418.1,5167.7,-1997.2,93750,3701.9,16511.3,3818
4186.3,9406.8,5162.1,-2002.4,93750,3692.2,16536,3828.9
4190.4,9410.2,5160.8,-2003.1,93750,3690.5,16545.1,3828.2
4193.7,9416.4,5161.3,-2001.6,93750,3693.6,16542.9,3823.6
4199.8,9422.5,5165.6,-1998,93750,3697.4,16537.5,3819.1
4205.4,9427.6,5170.4,-1993.5,93750,3702.5,16525.4,3810.7
4201.5,9429.7,5168.1,-1991.7,93750,3704.5,16518.4,3808.9
4195.2,9429.3,5168.6,-1991.1,93750,3704.7,16515.7,3811
4186.1,9425.3,5170.6,-1992.4,93750,3696.8,16517.2,3811.1
4185.3,9417.5,5169.3,-1994.9,93750,3695.9,16513.3,3804.4
4191.7,9414.9,5162.4,-1996.3,93750,3699.7,16510.1,3807.8
4193.6,9420.5,5155.6,-1997.3,93750,3700.3,16511.8,3813.2
4193.4,9425.8,5156.8,-1995.8,93750,3703.8,16510,3814.4
4199.3,9428.8,5164.5,-1993.8,93750,3707,16499.8,3809.1
4200,9428.6,5168.4,-1992.8,93750,3706.5,16496.8,3808.9
4199.3,9424.8,5168,-1993.6,93750,3704.4,16499.7,3811.9
4196.7,9418.4,5165.6,-1995.5,93750,3700.9,16505,3816.3
4188.2,9411.7,5159.9,-1998.3,93750,3698.3,16526.1,3835.6
4176.8,9408.7,5159,-2003.3,93750,3698.4,16556.5,3859.2
4174.7,9415.2,5161,-2002.9,93750,3700.8,16563.6,3854.4
4178.6,9418.3,5164,-1998,93750,3704,16561.1,3845.2
4188.1,9423,5161.7,-1992.9,93750,3707,16558.3,3839.2
4195,9426.8,5160.5,-1989.4,93750,3711,16555.2,3835.6
4196.3,9425.2,5163.1,-1988.7,93750,3708.6,16555.4,3833.3
4195,9423.9,5165,-1991.4,93750,3708.6,16552.3,3827.8
4196.7,9426.7,5162.2,-1995.8,93750,3706.1,16528.5,3803.3
4198,9425.3,5162.4,-1993.9,93750,3705.6,16505.5,3792
4193.8,9421.7,5161.6,-1992.6,93750,3704.5,16499.4,3796.7
4192.8,9422.9,5167,-1991.9,93750,3705.8,16495.4,3801.7
4193.9,9425.5,5176.4,-1989.6,93750,3707.4,16492.4,3806.2
4193.4,9426.1,5185.2,-1986.8,93750,3705,16492.6,3810.3
4189.4,9424.7,5197.2,-1987.2,93750,3699.4,16495.3,3811.7
4186.3,9423.3,5186.2,-1988.1,93750,3700.9,16501.3,3815.1
4189.6,9419.5,5149,-1986.7,93750,3698.6,16523.9,3827.6
4181.9,9417.4,5147,-1988.3,93750,3691.3,16535.4,3827
4183.6,9420.8,5141.6,-1989.9,93750,3692.5,16533.3,3820.9
4195.5,9421.8,5140.7,-1991.7,93750,3698.9,16525.5,3815.1
4197.7,9426.1,5155.9,-1989.9,93750,3699.7,16511.8,3805.1
4198.5,9430.1,5163.5,-1986.3,93750,3703,16503.5,3802.6
4199.4,9428.7,5166.1,-1985.2,93750,3706.2,16499.7,3805
4199.3,9424.5,5165.4,-1987,93750,3706.5,16499.3,3806.5
4196.7,9423.8,5163.2,-1985.9,93750,3702.5,16498,3802
4193.8,9419.6,5160,-1985.3,93750,3698.2,16500,3805
4191.5,9413.9,5157.4,-1988.3,93750,3694.3,16503.8,3807.7
4187.4,9414.9,5156.8,-1989.3,93750,3695.4,16502.9,3806.6
4188.8,9422.1,5158.8,-1987.7,93750,3700.2,16491.4,3800.2
4191.2,9424.8,5163.8,-1986.5,93750,3704.6,16484,3800.1
4191.4,9425.7,5167.2,-1986,93750,3705.8,16483.4,3803.8
4191.4,9426.8,5164,-1984.3,93750,3708.1,16486.8,3809
4186.5,9420.5,5157.6,-1985.9,93750,3709.2,16508.1,3831.3
4183,9412.4,5153.1,-1993.1,93750,3702.9,16544.5,3857.5
4183.2,9410.4,5154.6,-1997.3,93750,3697.4,16557.7,3851
4183.3,9412.3,5156.3,-1997,93750,3697.8,16555.8,3837.7
4183.2,9417.3,5158.7,-1991.8,93750,3701.2,16550.2,3828.9
4183,9423,5163.6,-1987.1,93750,3703,16546.2,3825.1
4186.2,9425.1,5171.5,-1986.3,93750,3704.4,16542.5,3822.3
4187,9421.9,5189.9,-1988.7,93750,3701.4,16538.6,3816.9
4186.9,9428.5,5194.7,-1993.7,93750,3702.5,16514.4,3792.3
4198.3,9438.6,5164.4,-1986.1,93750,3713.5,16489.5,3785
4199.3,9427.9,5157.7,-1984.8,93750,3706.9,16487.4,3793
4197.4,9421.5,5155.9,-1985.3,93750,3700.4,16489.3,3798.2
4195.1,9419.3,5155.3,-1984,93750,3701.1,16488.9,3802.9
4193.5,9419,5155.7,-1985,93750,3702.8,16488.2,3807.2
4194.1,9420.5,5158.9,-1985.4,93750,3702.4,16489,3811
4192.3,9421.3,5162.1,-1984.7,93750,3702.8,16495.2,3816.8
4186.2,9415.2,5159.3,-1985.5,93750,3700.8,16519.4,3830.5
4186.4,9408,5159.6,-1989.9,93750,3698.2,16533.2,3832.3
4188.7,9405.6,5160.3,-1995.3,93750,3698,16536,3827.7
4187.5,9404.1,5158.2,-1998.3,93750,3700.7,16534.1,3822.8
4182.4,9406.5,5159.3,-1997.5,93750,3705.1,16522.7,3814.2
4176.4,9413.5,5157.8,-1993.2,93750,3703.9,16515.2,3812.4
4177.8,9419.2,5157.2,-1991.6,93750,3701.4,16511.9,3813.6
4182.9,9425.9,5155.7,-1990.3,93750,3700.5,16510.6,3813.6
4188.6,9429.6,5156.3,-1986.5,93750,3696,16507.6,3806.8
4190.5,9427.9,5156.8,-1983.5,93750,3698.4,16506.4,3808.5
4185.1,9424,5155.4,-1983.4,93750,3700.5,16508.2,3811.4
4180.9,9422.5,5152.7,-1984.2,93750,3698.3,16507.3,3810.5
4177.8,9421.9,5154,-1984.6,93750,3696.2,16498.6,3803.6
4176.4,9422,5157.1,-1985,93750,3692.7,16494.1,3801.6
4176.4,9424.7,5156.6,-1984.7,93750,3693,16492.6,3803
4176.6,9427.9,5154,-1984,93750,3699.2,16491.4,3807.1
4173.9,9428.1,5152.3,-1983.9,93750,3706.5,16507.2,3829.5
4169.6,9426.9,5156.6,-1989.2,93750,3703.8,16540.5,3857
4169.7,9430.7,5159.6,-1992,93750,3701.2,16552.9,3852.8
4171.3,9429.6,5159.7,-1991.8,93750,3699.9,16553.4,3841.8
4171.1,9426.5,5157.4,-1991.9,93750,3699.9,16551.9,3833.2
4171.4,9429.2,5150.9,-1988.6,93750,3697.2,16550.5,3828.3
4172.4,9436.8,5135.2,-1983.5,93750,3699.8,16547.8,3825
4172.6,9438.9,5132.4,-1982.3,93750,3705.1,16540.6,3820
4175.1,9441,5150.9,-1987.8,93750,3704.3,16514.4,3796
4176.2,9446.8,5163.3,-1982.7,93750,3711.3,16488.9,3786.5
4174.7,9446.1,5158.6,-1978,93750,3712.4,16485.2,3794.9
4175.3,9440.8,5153.9,-1978.1,93750,3709.7,16487.2,3802.4
4170.8,9437.6,5148.9,-1978.2,93750,3708.3,16489.2,3807.9
4166.2,9434.6,5145.3,-1980.2,93750,3704.8,16491.7,3811.4
4158.4,9427.9,5160.9,-1985.2,93750,3697.4,16494.9,3812.8
4155.7,9425.3,5162.8,-1988.6,93750,3700.5,16500.7,3816.9
4163.6,9423.8,5135.9,-1987.2,93750,3703.3,16521.9,3831.4
4162.1,9424.5,5143.1,-1987.9,93750,3700.5,16533.1,3833.7
4160.8,9433.6,5146.9,-1988.5,93750,3701.9,16534,3830.4
4160.3,9441.1,5146.6,-1987.1,93750,3702.4,16533.5,3827
4163.5,9433.4,5154,-1988.5,93750,3702.9,16525.5,3818.2
4162.3,9424.5,5150.9,-1988.3,93750,3702.8,16520.3,3816.1
4158.2,9423.1,5143.1,-1988.3,93750,3701.9,16519.3,3818.2
4158.7,9422.3,5144,-1988.3,93750,3699.8,16518.6,3817.9
4161,9422.7,5146.2,-1986.4,93750,3699.1,16513.3,3811.8
4165.2,9425.8,5145.2,-1983.5,93750,3704.8,16510.3,3815
4169.3,9429.4,5144,-1982.5,93750,3707.2,16511.9,3819.7
4172.2,9428.9,5144.2,-1983.5,93750,3707,16513.1,3820.6
4172.6,9429.3,5146.9,-1983.5,93750,3706.9,16506.8,3814.6
4166.7,9427.9,5146.3,-1984.4,93750,3702.3,16506.7,3814
4159.6,9426.1,5144.7,-1986.5,93750,3698.7,16509.7,3815.1
4159.7,9423,5143.8,-1986.9,93750,3695.9,16513.2,3817.2
4160,9417.5,5141.7,-1989,93750,3696.6,16533.5,3837.3
4158.7,9416.2,5139.7,-1995,93750,3697.9,16565.9,3862.9
4166.3,9424.3,5145.5,-1993.5,93750,3699.8,16574.6,3857.3
4169.7,9428.8,5150.1,-1988.5,93750,3703.1,16573,3846
4169.2,9430.3,5153.5,-1985.6,93750,3702,16571.8,3837.5
4167.4,9431.4,5150.5,-1983.8,93750,3701.7,16570.3,3831.9
4164.9,9430.5,5148.4,-1983.5,93750,3699.6,16569.5,3828
4159.4,9429.9,5146.5,-1985.3,93750,3697.3,16566.8,3821.2
4164.5,9435.1,5150.1,-1989,93750,3698,16539.8,3795.5
4169.8,9438.6,5153.6,-1983.4,93750,3702.5,16512.6,3784.8
4172,9440.7,5151.2,-1977.9,93750,3704.8,16505.9,3791.9
4175.5,9443,5152,-1976,93750,3706.3,16506.2,3799.9
4177.6,9441.9,5153.2,-1976,93750,3706.9,16508.8,3806.1
4176.3,9439.2,5144.8,-1977.7,93750,3706.4,16513,3811.3
4170.1,9432.1,5149.1,-1981.3,93750,3702.2,16516.7,3813.8
4162.1,9422.8,5155.3,-1986,93750,3694.1,16526.2,3817.2
4149.9,9415.9,5145.7,-1988.9,93750,3687.4,16551.3,3828.5
4141.9,9418.2,5155,-1990.1,93750,3686.5,16561.5,3828.2
4144,9425.6,5153.6,-1990,93750,3691.2,16559.7,3823.2
4162.4,9437.3,5134.5,-1985.5,93750,3702,16553.1,3819.8
4169.3,9438.5,5147.9,-1983.9,93750,3705.6,16540.5,3811.2
4171.3,9435.6,5153.7,-1983.3,93750,3704.3,16532.7,3807.6
4172.8,9434.5,5149.1,-1982.7,93750,3699.9,16530,3807.6
4169,9432,5141,-1983.3,93750,3697.1,16530.2,3807.4
4163.9,9428.1,5134.7,-1982.8,93750,3694.6,16526.7,3801.7
4159.7,9429.9,5132.7,-1980.4,93750,3697.4,16523.9,3804.5
4159.2,9430.6,5136.1,-1980.2,93750,3699,16524.1,3809.3
4161.1,9431.7,5148.7,-1981.1,93750,3701,16520.1,3809.2
4163.5,9437.5,5160.3,-1979.2,93750,3703.4,16507.6,3802.2
4165.1,9437,5160.4,-1977.5,93750,3703.5,16503.1,3802.2
4164.7,9430.5,5158.3,-1980.3,93750,3702.8,16504.9,3806.1
4157.6,9429.4,5154.4,-1981.6,93750,3702.6,16508.6,3810.8
4145.4,9426.8,5147.9,-1983.7,93750,3700.7,16528.7,3831.1
4144,9421.3,5138.3,-1991.2,93750,3696.8,16562,3856.7
4151.7,9425.9,5137.5,-1993.5,93750,3697.4,16571,3851.7
4157.5,9433.6,5139.9,-1988.9,93750,3702.5,16566.8,3841.3
4164.9,9434.6,5147.6,-1985.4,93750,3707.3,16561.6,3834.4
4170.7,9435.1,5151.4,-1984.5,93750,3709.5,16558.9,3831
4173.3,9435.9,5148.3,-1984.7,93750,3710.1,16557.9,3828.9
4172.8,9436.1,5142.9,-1986.3,93750,3710.5,16554.1,3823.3
4171,9436.7,5147.8,-1991.6,93750,3709.5,16527.7,3798.3
4164.4,9437.9,5151.5,-1985.2,93750,3708.9,16503.3,3788.1
4162,9435.9,5145.8,-1981.5,93750,3705.5,16499.6,3794.6
4163.5,9434,5147.2,-1980.4,93750,3705.1,16497.5,3800.7
4166.4,9433.8,5152.5,-1978.7,93750,3707.6,16495.9,3806.3
4166.8,9433.1,5165,-1979.3,93750,3706,16498.8,3811.8
4163.6,9433.7,5165.4,-1981.3,93750,3707.1,16501.5,3815.2
4171.2,9434.2,5138.7,-1980.5,93750,3709,16509.2,3821.5
4160.3,9422.3,5132.6,-1984.9,93750,3701.9,16536.5,3835
4153.3,9419.8,5129.4,-1987.9,93750,3695.6,16551.1,3835.3
4150.2,9423.2,5129.4,-1988.4,93750,3692.8,16553.5,3830.2
4149.5,9427.1,5130.6,-1987.5,93750,3694,16550.7,3824.6
4157,9434.1,5133.2,-1983.5,93750,3701.5,16535.6,3814.3
4161.9,9433,5145.5,-1980.2,93750,3704,16526.3,3811.6
4163.4,9435.6,5151.5,-1977.8,93750,3703.1,16524,3813.3
4162,9437,5146.7,-1977.4,93750,3699.9,16526.6,3815.3
4160.8,9431.9,5144.1,-1978.7,93750,3697.4,16525.1,3810.5
4158.5,9424.9,5144.5,-1982.4,93750,3697,16526.7,3813.1
4157.5,9423.1,5143.6,-1985.8,93750,3690.7,16531,3815.1
4157.1,9424.5,5144.1,-1986.5,93750,3688.2,16530.5,3813.3
4161,9431.1,5145.3,-1983.3,93750,3692.2,16518.9,3804.9
4161.6,9432.6,5146.9,-1980,93750,3700.3,16509.7,3803.5
4162.6,9433.3,5151.8,-1978.4,93750,3702.9,16506.5,3807.3
4163,9434.4,5153,-1977.8,93750,3703.3,16508.7,3812.8
4157.1,9430.1,5147.2,-1980.4,93750,3701.5,16531.3,3834.9
4153.3,9423.2,5142.6,-1988.8,93750,3696.7,16567.2,3860
4149.6,9424.1,5140.9,-1992.1,93750,3694.5,16579.1,3854.1
4145.7,9430.1,5137.5,-1987.8,93750,3698.4,16575.8,3841.7
4144.4,9435.9,5135.6,-1982.2,93750,3703.4,16569.2,3833.9
4145.7,9438,5140.6,-1979.4,93750,3704.9,16565.2,3830.4
4153.1,9439.7,5148.2,-1977.6,93750,3705.7,16562.1,3828.2
4163.4,9439.5,5151.4,-1979.6,93750,3704.6,16558.1,3822.6
4177.1,9442,5152,-1985.6,93750,3703.2,16533.9,3797.9
4183.3,9440.9,5150,-1982.7,93750,3704.5,16512.4,3788.1
4180.4,9437.4,5140.7,-1981.8,93750,3700.6,16511.2,3794.2
4172.9,9434.1,5141.9,-1983.3,93750,3696.7,16514,3799.4
4167.2,9434,5146.7,-1982.7,93750,3695.1,16514.6,3802.9
4168.2,9434.5,5148.6,-1981.9,93750,3695.4,16514.5,3805.1
4166.5,9431.8,5161.4,-1981.6,93750,3694.7,16515.8,3807.8
4162.3,9431.2,5167.8,-1983.1,93750,3696.9,16521.7,3812.6
4167.4,9431,5137.3,-1982.5,93750,3700.2,16543.5,3826.1
4167.7,9427.1,5136.7,-1984.9,93750,3696.8,16555,3828.1
4165.4,9425.8,5140.7,-1987.8,93750,3692.5,16556.7,3823.6
4163.6,9429.1,5139.2,-1988.5,93750,3689.6,16556.7,3819.5
4160.5,9432.3,5141.5,-1987.5,93750,3688.6,16549.5,3810.7
4160,9426.9,5147.1,-1989,93750,3691.8,16542.3,3807.9
4162.6,9429.1,5151.1,-1988.4,93750,3695.5,16537.5,3809.8
4163.8,9431.6,5152.9,-1986.9,93750,3695.2,16535.5,3810.9
4165.4,9434.2,5153.7,-1983.4,93750,3696.9,16531.7,3807.5
4169.6,9431,5149.4,-1983.4,93750,3698.5,16532.8,3812.4
4169.7,9428.8,5145,-1986.9,93750,3696.1,16537.3,3816
4167.9,9430.6,5141.4,-1988,93750,3692.1,16539.7,3814.6
4169,9430.3,5143.6,-1988.4,93750,3691.7,16531.1,3805.8
4165.9,9431.3,5143,-1987.8,93750,3689.9,16526,3803
4164.7,9433.8,5143.3,-1988.1,93750,3690.3,16523.7,3804
4166.5,9435.4,5145.8,-1985.8,93750,3693.8,16523.4,3807.5
4169.4,9430.9,5147.8,-1986.1,93750,3695.8,16542,3829
4170.1,9429.4,5147.4,-1990.9,93750,3694.9,16574.8,3854.2
4170.8,9432.9,5147.2,-1991.3,93750,3691.2,16587.8,3848.9
4169.6,9432.7,5148.5,-1990.9,93750,3691.8,16589.7,3837.8
4165,9430.9,5147.9,-1989.9,93750,3693,16589.6,3831.1
4161.9,9435.1,5146.1,-1988.8,93750,3687.4,16589.9,3825.9
4165.4,9437.6,5147.9,-1986.7,93750,3684.8,16589,3821
4171.5,9437.7,5150,-1985.8,93750,3683.8,16584.6,3814
4183.8,9444.1,5155.7,-1989.6,93750,3685.3,16558.1,3788.9
4186.9,9453.1,5161,-1984.2,93750,3694.4,16531.5,3779.5
4181.5,9451.3,5169,-1982.5,93750,3690.2,16528.1,3786.5
4173.6,9450.4,5175.8,-1985.2,93750,3683.7,16531.9,3792.5
4178.2,9459.7,5147.8,-1982.4,93750,3682.3,16534.6,3797
4177.6,9456.5,5138.8,-1982.5,93750,3677.7,16539.3,3800.5
4172.4,9453.2,5143.8,-1982.5,93750,3675.9,16542.1,3801.8
4169.7,9450.4,5141.2,-1981.2,93750,3676.5,16549.4,3806.9
4164.8,9444.3,5134.3,-1982.2,93750,3675.1,16572.5,3819.4
4169.2,9455.1,5125.5,-1980.3,93750,3677.6,16582.7,3821
4171.6,9464,5129.1,-1978.4,93750,3677.9,16585.5,3818.4
4173.9,9461.2,5137.6,-1981.4,93750,3674.9,16587.2,3813.6
4174.5,9463.1,5142.2,-1981.6,93750,3675,16581.8,3804.4
4167.3,9467.1,5137.1,-1978.7,93750,3672.8,16580.9,3801.7
4159.9,9467.1,5135.1,-1978.6,93750,3667.9,16583.7,3802.3
4157.2,9466.9,5138.4,-1978.9,93750,3667.1,16585.3,3801.6
4158.7,9466.3,5140,-1975.8,93750,3665.4,16584.5,3796.2
4164.8,9465,5145.1,-1975.1,93750,3669.2,16586.8,3799
4172.2,9462.4,5151.7,-1979.9,93750,3672.1,16592.5,3803
4176.8,9464.7,5150.8,-1981.6,93750,3674.7,16593.5,3802.7
4179.3,9471.6,5145.4,-1980.1,93750,3672.8,16588.5,3796
4176,9476.8,5133.6,-1978,93750,3671,16588.1,3794.1
4170,9476.7,5126.9,-1978.1,93750,3666.1,16593.1,3796.3
4166.3,9473.9,5127,-1979.3,93750,3665.3,16597.4,3798.8
4162.8,9469.9,5129.7,-1978.7,93750,3666.9,16616.9,3818.4
4159.1,9471.1,5130.9,-1981.7,93750,3666.7,16649.6,3843.2
4164.9,9478.5,5137.7,-1979.8,93750,3670.1,16658.8,3838.1
4167.7,9478.8,5141.9,-1976.5,93750,3676.8,16657.6,3828.9
4165.2,9477.5,5143.6,-1974.4,93750,3683.4,16656.1,3823.6
4165.8,9472.1,5145.9,-1975.2,93750,3682.5,16656.6,3820.3
4164.4,9463.3,5158,-1977.7,93750,3677.1,16658.3,3817.6
4161.1,9459.6,5163.1,-1981.5,93750,3674.7,16656.2,3810.8
4174.6,9471.9,5138.3,-1982.9,93750,3679,16631.3,3788.1
4178.1,9478.1,5143,-1976.7,93750,3680.8,16609.6,3780
4175.2,9479.6,5148.4,-1972,93750,3683.2,16605.9,3787.3
4175.2,9482.3,5148.8,-1968.6,93750,3688.2,16604.7,3794.6
4175.2,9481.7,5150.1,-1965.4,93750,3692.9,16604.4,3800.8
4171.5,9471.9,5148.9,-1967.7,93750,3693.7,16605.3,3805.8
4165.2,9467.8,5142.5,-1969.3,93750,3695.8,16605,3809.1
4161.7,9460.6,5137.8,-1971.6,93750,3692.5,16609.9,3815
4155.8,9450.4,5134.2,-1973.8,93750,3683.9,16632,3827.5
4155.6,9449,5139.9,-1977.1,93750,3681.4,16641.1,3827.7
4161.5,9456.4,5138.7,-1976,93750,3685.1,16638.3,3823.7
4170.5,9470.5,5129.4,-1970.6,93750,3693,16629.9,3819.6
4170.2,9477.1,5138.4,-1966.7,93750,3699,16615.6,3811.9
4164,9474.1,5148.9,-1965.5,93750,3703.3,16606.5,3810.8
4158.7,9466.8,5150.7,-1965.9,93750,3701.6,16604.6,3814
4157.1,9459.2,5149,-1968.1,93750,3698.8,16603.2,3814.7
4158.3,9454.7,5146.6,-1968.1,93750,3694.1,16596.8,3808.2
4162,9452.1,5149.9,-1969.3,93750,3694.7,16592.3,3810.5
4165.1,9452.6,5153.8,-1971.9,93750,3693.3,16591.3,3813.5
4166.3,9460,5155.3,-1970.5,93750,3693.4,16589.1,3812.9
4170.9,9467.6,5160.9,-1967.8,93750,3700.8,16577.4,3807.2
4167,9469.6,5160.9,-1965.6,93750,3705.7,16570,3807.4
4163.8,9467.1,5158.2,-1965.4,93750,3705.5,16568,3810.3
4161.7,9460.9,5152.4,-1965.9,93750,3706,16568.4,3814.5
4155.6,9454.1,5142.5,-1966.7,93750,3705.6,16585.5,3835.7
4153.6,9443.5,5134.8,-1973.6,93750,3704.5,16615.6,3862
4164.8,9445.4,5138.4,-1975.4,93750,3705.7,16620.6,3857.5
4170.3,9453.5,5145.5,-1973.7,93750,3706,16616.6,3847.6
4173.3,9460.5,5149.9,-1971,93750,3710.3,16611.7,3840.5
4175.6,9462.9,5159.2,-1966.7,93750,3712.1,16607.6,3837.1
4166.9,9458,5171.4,-1965.9,93750,3711.7,16605.9,3834.6
4161.8,9459.3,5152.5,-1964.4,93750,3721.6,16600.1,3830.5
4166.8,9460.2,5141.4,-1967.9,93750,3722.5,16574.5,3809.7
4165.2,9454.7,5152.1,-1967,93750,3719.7,16551,3801.2
4162.7,9448.5,5153.9,-1965.7,93750,3719.8,16544.3,3808.4
4164.7,9449.7,5155.1,-1965.5,93750,3718.5,16540.7,3814.4
4167.1,9454.6,5159.7,-1962.9,93750,3719.8,16537.2,3818.4
4166.3,9453.3,5166.4,-1963.1,93750,3723.5,16535.5,3822.7
4167.4,9449.3,5166.6,-1965.6,93750,3727.6,16534,3826.1
4166.5,9445.2,5160.8,-1967,93750,3725.7,16538.1,3831.4
4159.9,9435.3,5152,-1970.5,93750,3716.1,16560.9,3843.5
4154.4,9436.7,5141.6,-1971.5,93750,3712.7,16571,3843.8
4155.6,9438.3,5130.6,-1971.6,93750,3716.3,16567,3839.1
4160.9,9445.1,5123,-1968,93750,3723.9,16557.9,3835
4160.7,9448.6,5133.5,-1964.8,93750,3728.9,16544.1,3828.6
4161.6,9449.2,5144.2,-1963,93750,3732.6,16535.1,3828.6
4160.2,9446.4,5154.1,-1963.4,93750,3735.4,16530.6,3831.7
4154.8,9439.4,5162.4,-1966.2,93750,3735,16528.8,3833.9
4154,9436.9,5160.4,-1966.4,93750,3728.5,16525.9,3829.1
4157.9,9434.6,5150.5,-1968,93750,3724.3,16526.6,3831.8
4161.3,9429.3,5143.1,-1972.8,93750,3722.7,16528.7,3835.1
4163.1,9431.3,5139,-1973,93750,3723.4,16525.6,3834.6
4165.4,9436.1,5141.4,-1970.6,93750,3724.2,16514.2,3827.4
4164.6,9439.5,5144.7,-1968.4,93750,3726.7,16508.4,3826.4
4166.6,9439.8,5148.8,-1967.8,93750,3730.2,16506.7,3830.3
4168.5,9438.3,5149.5,-1968.8,93750,3730,16509.8,3836.1
4161.8,9432.6,5145.5,-1970.8,93750,3729.9,16531.4,3858.3
4151.8,9424.2,5145.8,-1978.6,93750,3727.3,16566.7,3884.7
4142.2,9420.2,5159.2,-1983.9,93750,3720.9,16579,3879.1
4138.7,9424.8,5157.1,-1983.4,93750,3720,16577.6,3865.7
4152.2,9437.1,5130.1,-1977,93750,3730.2,16569.4,3857.2
4152.3,9438.4,5139.2,-1973.1,93750,3734.4,16561.2,3852.3
4151,9441.2,5151.1,-1970.4,93750,3738.5,16553.2,3848.7
4153.1,9441.9,5155.7,-1970.6,93750,3740.3,16545.3,3844.6
4158.3,9446.3,5158.3,-1973.7,93750,3739.9,16518.3,3821.6
4164.5,9445.6,5155,-1969.9,93750,3739.5,16493.5,3812.2
4163.3,9438.8,5151.5,-1968.7,93750,3732.1,16489.5,3818.2
4162.9,9432.4,5146.5,-1969.7,93750,3728.3,16488.3,3822.6
4161.4,9430.7,5144.2,-1967.8,93750,3728.3,16486.9,3826.1
4159.1,9433.8,5144.1,-1967.3,93750,3729.6,16486.6,3830.9
4159.6,9436.5,5146.1,-1967.1,93750,3730.7,16485.6,3834
4157.8,9437.9,5147,-1967,93750,3729,16489.9,3838.3
4152.8,9432.4,5144.2,-1968.1,93750,3724.2,16511.6,3849.9
4150.8,9429.1,5143.7,-1970.4,93750,3721,16521.7,3850
4151.1,9428.4,5147.1,-1972.7,93750,3720.9,16521.4,3845.6
4147.7,9427,5144.3,-1974.2,93750,3718.7,16517.9,3840.2
4149.5,9431.4,5142.3,-1971.6,93750,3718.9,16506.9,3830.7
4149.1,9438,5133.9,-1967.2,93750,3720.1,16499.3,3827.7
4153.8,9443.1,5126.8,-1964.8,93750,3724.6,16491.8,3827.6
4158.4,9438.5,5134.4,-1965.4,93750,3727.3,16486.2,3828.6
4161.1,9433.3,5144.8,-1966.2,93750,3727.2,16479.7,3824.7
4154.5,9432.5,5151.5,-1966.9,93750,3728.9,16478.5,3830
4148.4,9429,5148.9,-1969.2,93750,3729.2,16481,3835.6
4147.3,9424.8,5144.8,-1972.6,93750,3724.1,16482.3,3835.7
4151.7,9424.2,5141.1,-1975,93750,3721.2,16475.5,3828.6
4150.5,9425.6,5135.3,-1975.5,93750,3722.5,16473.1,3828.7
4150.6,9425.9,5136.2,-1976.2,93750,3722.2,16473.4,3832.2
4144.3,9423.7,5150.8,-1977.3,93750,3723.6,16476.1,3836.6
4136.9,9422.6,5155.6,-1978,93750,3728.6,16495.7,3857.8
4148.8,9423.4,5126.5,-1981.9,93750,3732.7,16529.3,3885.4
4151.7,9423.8,5126.3,-1985.2,93750,3729.6,16544.2,3882.4
4148.3,9425.4,5130.9,-1984.3,93750,3729,16548.1,3872.2
4145.2,9423.7,5130,-1983.7,93750,3726.2,16549.5,3864
4146.5,9419.7,5127,-1984.1,93750,3725.7,16548.8,3858.1
4147.8,9417.6,5126.9,-1983.7,93750,3728.3,16546.7,3854.7
4144.5,9419.9,5130.8,-1984,93750,3729.6,16543,3850.1
4147.7,9430.9,5139.9,-1986.4,93750,3732.3,16516.2,3825.3
4151.7,9437.2,5143.1,-1980,93750,3740.6,16488.6,3815.5
4152,9430.7,5143.3,-1978.1,93750,3738.1,16485.1,3823.8
4150.8,9424.7,5145.8,-1981.4,93750,3732.3,16490,3831
4148.5,9422.1,5145.5,-1982.2,93750,3728.9,16494.5,3835.5
4142.1,9420.2,5135.5,-1982.9,93750,3724.9,16499.6,3838.6
4139.9,9419.1,5124,-1983.6,93750,3725.6,16501.5,3840.5
4140.3,9417.8,5122.6,-1983.5,93750,3726.2,16506.8,3845
4136.2,9410.9,5120,-1985.9,93750,3721,16531.9,3858
4137.8,9414.2,5125.8,-1986.2,93750,3720.9,16544.2,3859.3
4141.9,9416.3,5129.9,-1986.1,93750,3723.4,16546.2,3855.8
4145.1,9418.2,5130,-1986.5,93750,3722.7,16546.3,3851.2
4149.5,9419.5,5131.7,-1985.9,93750,3723.4,16539.1,3841.6
4147.8,9417.6,5127.4,-1985.9,93750,3720.3,16536.7,3839.4
4146.5,9416,5123.2,-1987.9,93750,3716,16537.7,3839.7
4145.6,9411.5,5122.4,-1989.4,93750,3716.5,16537.1,3839
4144.4,9411.7,5122.9,-1985.9,93750,3715.5,16535.6,3834.6
4141.2,9416.2,5126.6,-1983.3,93750,3718.5,16536.9,3838.9
4139.3,9421.4,5129.3,-1981.7,93750,3723.7,16539.4,3843.1
4142.6,9422.8,5122.4,-1982.2,93750,3725.6,16539.8,3843.8
4148.9,9425.2,5116.1,-1981.1,93750,3726.4,16532.7,3838.7
4139.4,9419.5,5122.8,-1981.9,93750,3719.3,16534.8,3839.3
4124.9,9414.1,5138.1,-1986.4,93750,3711.2,16541.8,3840.5
4122.8,9414.3,5129.3,-1987.2,93750,3711.4,16547.4,3842
4134.9,9416.7,5102.1,-1984.6,93750,3717.9,16567.7,3863.3
4135.2,9412.1,5104.6,-1991.6,93750,3714.5,16602.9,3888.8
4141.8,9417.5,5111.7,-1992.5,93750,3718.2,16612.9,3883.1
4143.4,9423.6,5118.7,-1987.3,93750,3722.3,16611,3871.8
4143,9423.6,5126.1,-1983.4,93750,3719.6,16612.2,3864.3
4141.1,9422.8,5129.5,-1982.2,93750,3717.1,16614.5,3859.1
4137.1,9419.8,5124.9,-1982.3,93750,3713.8,16617.1,3855.5
4138,9416.6,5119.1,-1984.6,93750,3711.2,16616.7,3848.7
4145.4,9420.3,5122.3,-1990,93750,3712.3,16590.7,3821.9
4147.4,9426.4,5128.9,-1984.1,93750,3716,16565.3,3811.2
4146.2,9428.4,5129.5,-1978.7,93750,3719.3,16558.6,3816.7
4150.2,9429.3,5132.3,-1975.2,93750,3722.5,16555.9,3823.1
4150.6,9429.5,5135.6,-1972.7,93750,3723.3,16555.9,3828.6
4141.5,9428.5,5132.1,-1973.1,93750,3720.6,16558.1,3832.6
4129.4,9429.5,5130.1,-1971.6,93750,3721.3,16558.1,3834.5
4122.8,9423.1,5128,-1973.1,93750,3714.4,16564.6,3838.1
4122.4,9413.5,5118.7,-1977.2,93750,3706.9,16586.5,3847.7
4134.1,9413.4,5112.8,-1978.9,93750,3703.9,16594.6,3846.7
4143.3,9416.6,5116.1,-1979.4,93750,3705.2,16592,3841.7
4149.3,9422,5123.7,-1978.2,93750,3709,16586.2,3836.8
4157.6,9426.3,5130.8,-1975.6,93750,3714,16573.3,3827.9
4157.4,9426.5,5130.5,-1973.5,93750,3715.5,16566.8,3826.2
4152.2,9426.9,5128.5,-1973.6,93750,3713,16566,3828.1
4147.3,9420.7,5125.3,-1975.2,93750,3711.5,16566.5,3829.1
4141.3,9417.2,5119.1,-1976.9,93750,3705.8,16565.5,3824.5
4140.8,9419.6,5119.8,-1977.2,93750,3707.6,16564.5,3826.9
4141.3,9419.2,5125.1,-1978.6,93750,3711.9,16564.2,3830.2
4142.8,9418.6,5135.8,-1980.3,93750,3715.4,16560.4,3830.4
4144.2,9424.7,5146.6,-1980.6,93750,3718.4,16548.1,3823.6
4148.7,9431,5131.3,-1977.3,93750,3724.5,16541.5,3823.9
4155.1,9425.3,5124.4,-1978.5,93750,3721.1,16543.5,3827.9
4147.8,9418.6,5131.7,-1982.2,93750,3719.1,16548.1,3831.9
4139.8,9410.8,5124.9,-1985.1,93750,3715.4,16570.1,3852.1
4136.1,9407.6,5119.4,-1990.6,93750,3712.9,16603.6,3876.8
4138.6,9411.5,5121.7,-1990.7,93750,3712.7,16612.9,3871.2
4145.2,9415.3,5127.7,-1987,93750,3715,16609.6,3859.3
4147.4,9418.7,5138.1,-1984.4,93750,3721.3,16604.5,3851.7
4140.7,9425.2,5143.7,-1980.7,93750,3728.8,16599.6,3848.8
4137.5,9427,5143.7,-1978.2,93750,3730.4,16596.2,3847.3
4139.3,9424.4,5137.7,-1980.3,93750,3727.7,16593.2,3843.1
4145.9,9425.5,5131,-1986.5,93750,3724.7,16568.9,3818.6
4151.2,9425.8,5127.1,-1981.8,93750,3724.9,16542.9,3807.1
4146.7,9424.5,5122.5,-1977.9,93750,3724,16537.2,3813.7
4142.6,9427.3,5123.6,-1975.4,93750,3725.3,16534.1,3820.7
4142.9,9430.3,5130.6,-1971.8,93750,3728.1,16531.2,3825.7
4145.9,9430.4,5134.1,-1971.1,93750,3726.7,16531.7,3830
4147.8,9430.9,5134.3,-1972.4,93750,3726,16533.3,3832.4
4143.9,9426.1,5131.9,-1975.4,93750,3725.3,16539.6,3837
4134,9415,5123.2,-1979,93750,3717.8,16563.2,3849.1
4130.8,9412.5,5119.4,-1982,93750,3714.1,16573.8,3849.9
4131.9,9413.1,5118.7,-1984,93750,3712.2,16573.4,3845.2
4133.9,9417.5,5120.7,-1982.5,93750,3712.2,16570.4,3840.3
4142.8,9420.2,5128.1,-1981.2,93750,3718.4,16558.1,3831.6
4152.3,9420,5131.4,-1979.3,93750,3722.8,16549.1,3829.7
4155.9,9425.2,5130.5,-1976.5,93750,3722.5,16546.9,3832.3
4155.1,9422.3,5124.2,-1976.1,93750,3722,16548,3833.9
4150.2,9416.8,5123.7,-1976.7,93750,3719.1,16546.2,3829.3
4139.7,9416.1,5125.6,-1976.6,93750,3717.2,16547.5,3832
4135.4,9412,5122.9,-1980.6,93750,3713.6,16552,3835.6
4136,9410.7,5131.8,-1983.5,93750,3711.4,16552.4,3834.4
4137.5,9412.9,5149.9,-1984.2,93750,3711.6,16542.2,3826.5
4147,9421,5128.1,-1980.6,93750,3720.3,16536,3826.6
4155.6,9424,5116.7,-1977.6,93750,3725,16535.5,3831.4
4150.9,9422.6,5125.7,-1977.4,93750,3723.8,16538.8,3835.8
4140.9,9417.9,5124.9,-1978.5,93750,3722.8,16559.3,3856.7
4131.7,9413.5,5122.1,-1984.7,93750,3717.4,16595.3,3881.9
4127.4,9416.3,5123.4,-1986.6,93750,3713.1,16608.1,3875.9
4126.8,9417,5126.2,-1986.2,93750,3711,16607.9,3863.8
4128.2,9417.8,5129.6,-1984.4,93750,3714.2,16604.3,3856.1
4137.9,9423.4,5129,-1979.9,93750,3717.5,16597.9,3850.2
4146.4,9431.3,5116.8,-1973.8,93750,3725.9,16589.9,3847.2
4148.3,9432.4,5118.5,-1973.6,93750,3726.7,16584.7,3844.3
4151.8,9432.8,5133.5,-1980.7,93750,3723.5,16561.9,3820.5
4151.8,9434.2,5137.8,-1978.6,93750,3726.1,16539.5,3810.1
4147.5,9428.5,5130.2,-1977.4,93750,3721.4,16538.4,3817.4
4145.9,9422.2,5129,-1980.1,93750,3718.5,16540,3823.1
4146.7,9420.3,5127.3,-1980,93750,3718.4,16539.9,3827.7
4145.5,9422.8,5124.2,-1979.2,93750,3720.3,16539.3,3831
4145.7,9423.5,5128,-1978.6,93750,3721.9,16537.9,3832.9
4144.6,9425.1,5132.9,-1977.6,93750,3721.6,16541.3,3836.7
4138.7,9420.2,5130.4,-1979.5,93750,3718.1,16563.3,3848.8
4139.5,9417.9,5127.1,-1981.2,93750,3716.3,16574.2,3849.7
4141,9417.4,5124.1,-1982.1,93750,3715.5,16575,3845.1
4140.6,9416,5121.5,-1983.5,93750,3713.1,16573.7,3840.6
4140.7,9419.3,5121.7,-1982.7,93750,3713.5,16562.4,3830.2
4140.6,9423.2,5118.3,-1977.6,93750,3716.5,16552.8,3826.5
4137.5,9427.6,5118.8,-1972,93750,3718.8,16549.4,3828.7
4136,9427.5,5131,-1971.7,93750,3718.2,16549,3830.1
4138.5,9425.5,5137.8,-1971.5,93750,3718.9,16544.9,3825.9
4137,9423.5,5132.6,-1971.7,93750,3722.1,16543.9,3830.2
4130.4,9423.1,5127.7,-1974.9,93750,3726.6,16545,3835
4124.9,9420.3,5124.9,-1976.3,93750,3726.7,16543.6,3836
4133.2,9415.3,5126.7,-1977.7,93750,3722.9,16534.1,3829.3
4138.8,9413.6,5131.2,-1979.7,93750,3714.9,16530.9,3826.6
4134.7,9413.6,5143.1,-1981.8,93750,3709.4,16533,3827.4
4140.2,9419.1,5131.4,-1980.8,93750,3713.4,16535.8,3830.5
4150.8,9419.8,5117.6,-1978.8,93750,3720.9,16553.9,3851.7
4145.3,9412.7,5123.5,-1984.4,93750,3720.8,16587.4,3878.3
4146.9,9413.1,5125.5,-1985.3,93750,3719.1,16599.1,3873.2
4146.4,9416.5,5125.8,-1983,93750,3715.3,16602.4,3862.3
4140.5,9413.6,5131.1,-1983.1,93750,3711.2,16605.2,3853.7
4138.3,9412.7,5135,-1982.1,93750,3709.7,16604.3,3846.5
4141.4,9414.1,5135.2,-1980.6,93750,3709.5,16602,3841.3
4148.4,9415.9,5133.9,-1981.4,93750,3709.2,16598,3835.2
4162,9422.8,5138,-1984.6,93750,3713.3,16571.2,3810.5
4165,9428.7,5140,-1977.4,93750,3721.2,16545.2,3801.6
4160.6,9425.5,5137.8,-1972.7,93750,3723.5,16540.9,3810.3
4157.9,9419.4,5139,-1974.5,93750,3719.8,16543.2,3817.9
4154.9,9416,5136.9,-1976.4,93750,3716.7,16546.3,3822.9
4153.8,9410.9,5130.5,-1979.4,93750,3711,16551.9,3826.3
4155.5,9408.2,5127.1,-1981.5,93750,3708.8,16554.1,3827.5
4158,9408.7,5124.9,-1981.4,93750,3708.5,16559.7,3831.8
4154.2,9407.4,5112.5,-1980.9,93750,3709,16581.1,3843.6
4154,9408.6,5121.1,-1981,93750,3710,16589.6,3844.8
4153.4,9409.3,5133.7,-1982.3,93750,3709.9,16589.9,3840.6
4153.1,9412.6,5137,-1980.9,93750,3710.9,16587.5,3835.3
4153.3,9417.6,5133.4,-1979,93750,3711.6,16579.6,3826.1
4154.2,9414.5,5130.3,-1980.4,93750,3710.8,16574.7,3823.4
4152.1,9410.1,5128.8,-1983.5,93750,3707.8,16575.1,3825.8
4150.8,9411.1,5127.7,-1983.9,93750,3705.4,16574.7,3825.8
4149,9408.5,5133.5,-1982.5,93750,3705.9,16568.8,3820.4
4143.6,9407.9,5145.7,-1981.5,93750,3712.2,16565.5,3824.1
4138,9408.3,5161.1,-1983.4,93750,3711.7,16565.6,3827.2
4148,9416.7,5139.8,-1980.8,93750,3716.3,16563,3827.2
4164.5,9419.7,5122.6,-1977.5,93750,3720.9,16552.5,3821.8
4161.8,9415.7,5122.6,-1976.8,93750,3717.2,16548.6,3820.9
4154.5,9411.1,5120.8,-1978.1,93750,3712.9,16550.4,3823.4
4149.6,9407.5,5121.4,-1980.2,93750,3708.7,16554.2,3826.5
4147.8,9405,5123.8,-1982.5,93750,3711.6,16571.7,3846.7
4146.2,9401.8,5128.3,-1989,93750,3711.3,16602.8,3873.1
4150,9408.2,5135.6,-1990,93750,3712.9,16612.6,3869.3
4152.1,9413.9,5139.1,-1985.9,93750,3717.9,16609.8,3858.4
4150.9,9415.7,5136.8,-1982.1,93750,3722.3,16606.2,3850.8
4149,9413.8,5134.1,-1979.4,93750,3723.3,16603.3,3846.3
4148.2,9411.4,5132.7,-1981,93750,3720.9,16602,3843.4
4146.4,9408.8,5130.7,-1984.5,93750,3717.6,16598.8,3837.6
4150.6,9413.1,5134.1,-1989.8,93750,3717.2,16571.7,3812
4155.1,9416.8,5139.8,-1984.2,93750,3722.7,16543.8,3801.9
4155.8,9417.4,5140.8,-1979.8,93750,3724.9,16536.2,3808.7
4160,9421.3,5141.2,-1977.1,93750,3727.2,16532.4,3814.5
4162.1,9421.4,5141.2,-1974.9,93750,3728.5,16530.1,3819.2
4160.7,9416.4,5140,-1978.1,93750,3724.6,16532.6,3823.5
4158.4,9413.6,5140.9,-1982,93750,3718.1,16536.1,3825.1
4151.6,9406.1,5137.7,-1986.8,93750,3715.2,16543.5,3829.8
4143.4,9398.3,5127.6,-1990.1,93750,3709.3,16566.8,3842.1
4147,9398.2,5127.1,-1991.6,93750,3706.4,16575.5,3841.2
4154.3,9404.5,5128.7,-1989.9,93750,3706.6,16574.4,3835.8
4156,9414.3,5131.8,-1985.6,93750,3712,16569.9,3831.1
4156.3,9422.8,5139.5,-1979.8,93750,3716.4,16558.4,3822.1
4154.1,9419.6,5140.9,-1978.3,93750,3716.4,16554.2,3820.4
4152.2,9414.3,5138.3,-1979.2,93750,3716.9,16555.1,3823.1
4148,9408.3,5136.8,-1982.3,93750,3713.8,16557.2,3824
4140.5,9401.1,5149.7,-1984.7,93750,3704.3,16555.7,3817.3
4137.3,9401.3,5149.7,-1986,93750,3707,16554.8,3818.9
4149.2,9408.6,5120.9,-1984,93750,3716.6,16553.7,3823.8
4151.8,9411.4,5129.1,-1983.4,93750,3720.4,16550,3825
4153,9417.2,5140.6,-1982,93750,3723.6,16538.2,3819.3
4151.4,9415.6,5142.9,-1981.3,93750,3725.6,16533.1,3819.4
4149,9416.4,5130.7,-1980.2,93750,3723.9,16535.2,3823.2
4150.3,9412.8,5124.3,-1981.5,93750,3720.7,16539.2,3827.5
4143,9403.7,5122.1,-1985,93750,3717.9,16560.9,3848.2
4136.2,9396.3,5121.3,-1992,93750,3713.4,16597.9,3874.4
4135.3,9399.2,5129.2,-1994.8,93750,3714.9,16610.7,3869.8
4136.7,9402.8,5136.9,-1992.5,93750,3719.8,16608.5,3859.3
4141,9407.7,5139.6,-1989.6,93750,3725.3,16605.5,3852.8
4148.4,9411.9,5139.5,-1986.7,93750,3729.9,16602.5,3849
4152.8,9412.8,5134.9,-1985.8,93750,3729.6,16601.5,3846.4
4151.7,9408.1,5130.8,-1988.6,93750,3725.8,16600,3841.1
4153.6,9407.6,5132.6,-1995.2,93750,3721.5,16578.1,3815.7
4154.8,9411.8,5125.7,-1991,93750,3724.3,16555.9,3804.8
4150.4,9410.1,5119.2,-1986.5,93750,3725.9,16551.1,3811.7
4148.7,9408.1,5126.5,-1986.1,93750,3726,16549.2,3818.3
4148.4,9407.7,5136.3,-1984.4,93750,3725.7,16548.3,3823.6
4146.4,9407.8,5142.9,-1983.7,93750,3726,16549.3,3827.5
4144.1,9411.4,5147.3,-1982.8,93750,3726.6,16550.2,3830
4145.5,9404.4,5145.6,-1986.6,93750,3722.5,16557.1,3833.9
4142.8,9393.5,5134.8,-1992.2,93750,3715,16581.9,3844.8
4136.1,9391.6,5128.1,-1994.8,93750,3713.1,16592.1,3844.5
4130.7,9395.6,5123.7,-1992.6,93750,3713.5,16591.3,3840
4138.6,9401.2,5120.4,-1988.8,93750,3713.9,16586.9,3834.9
4148.7,9407.3,5126.5,-1985.6,93750,3715.5,16575.1,3825.2
4156.1,9404.5,5133.8,-1985,93750,3720.4,16567.4,3823.2
4156.8,9404.2,5136.3,-1984.8,93750,3722.3,16564.8,3826.2
4152.3,9405.7,5138.4,-1985.9,93750,3721.2,16565.2,3827
4142.6,9400,5149.1,-1987.1,93750,3716,16563.4,3821.6
4133,9396.8,5144.7,-1988.4,93750,3715.3,16564.9,3824.5
4141.2,9400,5114.8,-1987.8,93750,3717.9,16567.1,3828.2
4140.6,9398.3,5120.3,-1988.3,93750,3717.1,16564.4,3827.2
4138.2,9402.6,5129.2,-1985.5,93750,3723.3,16550.4,3820.7
4139.8,9402.4,5131.3,-1984,93750,3727.7,16541.3,3821.1
4151.9,9403.6,5132.7,-1984.5,93750,3724.4,16541.3,3825.3
4159.5,9405.6,5133.2,-1985,93750,3718.8,16545.3,3828.6
4157.7,9399.7,5131.1,-1987.3,93750,3716.2,16567.2,3848.1
4151.8,9392.2,5126.5,-1996.6,93750,3713.6,16603.5,3872.9
4151.7,9393,5127.5,-1999.7,93750,3710.4,16615.5,3866.7
4151,9393,5128.3,-1999.1,93750,3707.7,16615.1,3854
4151.2,9400.5,5132.1,-1994.2,93750,3708.9,16612.3,3845
4154,9406.7,5134.6,-1989.7,93750,3711.6,16607.3,3838.1
4159.5,9412.7,5133.7,-1985.2,93750,3717.2,16600.3,3833.4
4166,9410.6,5134.8,-1985.2,93750,3718.4,16593.2,3827.9
4173.2,9412.9,5142.2,-1990.4,93750,3715.4,16568.3,3803.4
4173.9,9413.1,5147.9,-1986.8,93750,3716.9,16545.3,3793.3
4166.2,9406.8,5144.9,-1986.2,93750,3712.7,16542.6,3799.7
4160.6,9404.2,5141.8,-1987.7,93750,3711.5,16542.4,3806
4158.6,9404.4,5140.5,-1987.1,93750,3709.7,16541.3,3810.9
4157.5,9407.2,5137,-1986.8,93750,3708.6,16541.6,3815.2
4161.2,9408.8,5139.9,-1986,93750,3713.3,16538.4,3817.8
4166,9407.5,5142.1,-1985.8,93750,3714.6,16539.1,3822.5
4162.9,9401.4,5138.4,-1988.7,93750,3708.3,16560.9,3834.5
4159.8,9401.6,5135.3,-1989.3,93750,3706.7,16571.3,3834.9
4148.6,9402.1,5139.2,-1988.2,93750,3704.7,16573.9,3831.7
4141.4,9395.1,5153.7,-1991.9,93750,3703.2,16573.6,3826.7
4153.6,9396.3,5138.8,-1992.2,93750,3711.7,16560.2,3817.3
4163.5,9402.3,5121.4,-1989,93750,3713.9,16551.4,3815.7
4160.9,9405.4,5129.1,-1988.6,93750,3711,16547.6,3816.6
4163.2,9405.1,5137,-1988,93750,3712.9,16543.9,3817.3
4165.6,9404.2,5141,-1985.7,93750,3714.2,16538.8,3813.2
4164.6,9403.6,5137.3,-1984.4,93750,3714.7,16539.7,3817.6
4160.9,9400.7,5133.6,-1986.6,93750,3713.6,16544.4,3822.9
4157.5,9400.7,5128.2,-1989.4,93750,3712.3,16545.4,3823.9
4160,9403.6,5118.1,-1988.7,93750,3713,16537.3,3818.3
4157.7,9394.9,5130.4,-1990.5,93750,3708.4,16536.4,3818
4155.8,9391.7,5143.9,-1992.8,93750,3704.7,16539.3,3820
4153.2,9395.8,5146.1,-1991,93750,3705.8,16541.6,3822.1
4151,9397.9,5142.8,-1989.3,93750,3710.4,16560.3,3842.8
4153.3,9396,5136.7,-1992.9,93750,3711.5,16594.2,3869.7
4154.4,9396,5137.6,-1995.6,93750,3708.5,16608.5,3865.8
4154.7,9395.5,5140,-1996,93750,3708.3,16611.1,3855.5
4154.7,9395.5,5134.1,-1995.5,93750,3707.3,16612.1,3847.7
4155.5,9394.8,5129.7,-1995.8,93750,3707.5,16612.1,3842.8
4157.2,9394.3,5131.4,-1997,93750,3709.7,16609.8,3839.4
4159.6,9397.1,5133.9,-1999.2,93750,3712.3,16603.9,3833.5
4170.6,9405.4,5139.4,-2002.1,93750,3714.8,16577,3809.1
4177.9,9409.6,5147.1,-1996.8,93750,3720.3,16551.2,3798.9
4174.6,9404.7,5148.5,-1994,93750,3719.7,16547,3805.1
4167.8,9402.5,5147.3,-1993.3,93750,3718.4,16547.1,3810.8
4161.5,9401,5145.3,-1991.9,93750,3716.6,16547.2,3815.3
4158.6,9398.3,5137.8,-1991.6,93750,3712.8,16548.2,3818.3
4154.6,9398,5133.3,-1990.1,93750,3707.8,16548.3,3819.4
4148.7,9396.9,5144.4,-1990.7,93750,3706.5,16550.7,3822.6
4138.1,9388.2,5155,-1994.7,93750,3700.5,16572.4,3833.8
4145.2,9394.4,5139.1,-1993.5,93750,3708.2,16580.5,3835.7
4162.3,9397.3,5126.1,-1993.2,93750,3714.1,16578.6,3834.1
4160.3,9396.1,5135.5,-1995,93750,3712.5,16577.1,3831.6
4158.5,9399.2,5141.9,-1995.3,93750,3710.7,16569.6,3823.9
4160.2,9393.9,5141.6,-1998.5,93750,3706.9,16566.2,3821.5
4160.5,9392.4,5132.1,-2000.6,93750,3704.2,16566.6,3822.1
4160.7,9393,5124.3,-2000.7,93750,3706.8,16564.9,3821.7
4161.3,9395.3,5124,-1998,93750,3709.3,16558.2,3816.2
4160.6,9399.6,5129.3,-1995.4,93750,3713,16555.7,3820.2
4162.8,9397.9,5134,-1996.8,93750,3716,16557.7,3824.3
4169,9396.2,5135.9,-1999,93750,3717.7,16556.4,3823.3
4170.1,9401.5,5128.6,-1997.6,93750,3720,16546.9,3816.2
4163.6,9400.8,5126.4,-1996,93750,3718.5,16543,3814.9
4155.8,9395.3,5127.7,-1997.6,93750,3713.2,16545.1,3817
4151.5,9394.6,5127.2,-1998.5,93750,3711.6,16548.8,3820.4
4151.4,9390.1,5125.7,-1999.1,93750,3713.7,16567.7,3841.3
4150.2,9386.9,5126.7,-2005.5,93750,3712.4,16600.9,3867.3
4156.6,9394.1,5136.1,-2005.8,93750,3714,16611.4,3863
4161.3,9398.7,5135.5,-2001.4,93750,3716.9,16611,3853
4164.6,9400,5133.6,-1999.5,93750,3719.5,16609.9,3846.2
4162.7,9399.6,5134.4,-1999.3,93750,3718.9,16609.4,3842.1
4157.9,9395.5,5133.1,-1999.9,93750,3716.3,16610,3839.3
4152.1,9393.3,5131.6,-2001.2,93750,3713.9,16608.5,3833.7
4153.1,9397.8,5135.3,-2004.2,93750,3715.2,16583.7,3809.6
4154.5,9403.2,5139.9,-1998.7,93750,3722.2,16557.8,3800.4
4156.5,9401.4,5141.3,-1995.8,93750,3723.2,16552.1,3808.3
4158.9,9401,5142.1,-1994.6,93750,3724.9,16550.9,3816.2
4157.1,9401.6,5145.6,-1992,93750,3726.5,16551.4,3822.1
4148.5,9401,5146.6,-1991.8,93750,3725,16553.3,3826.3
4147.3,9399,5133.1,-1992.7,93750,3723.8,16554.1,3828.7
4154.8,9390.6,5116.8,-1995.8,93750,3719.9,16560.4,3833.6
4146.8,9381.3,5118.1,-2000.6,93750,3708.4,16584.7,3844.8
4149.6,9384.4,5118.6,-2001.8,93750,3704.4,16593.8,3843.3
4152.8,9388.4,5123.8,-1999.4,93750,3707.3,16593,3838.8
4153.8,9392.6,5131.5,-1997.4,93750,3712.8,16590.1,3834.9
4158.2,9399.8,5139.7,-1994.1,93750,3717.9,16578.3,3825.2
4157.6,9398.3,5143.4,-1992.9,93750,3718.6,16571.8,3822
4154,9396.3,5140.6,-1993.5,93750,3716.4,16571.4,3823.2
4148.4,9393.2,5136.4,-1996.1,93750,3712.8,16572.2,3822.3
4147.5,9389,5132.6,-1997.5,93750,3710.4,16568.3,3815.8
4154,9387.9,5128.8,-1997.9,93750,3711.3,16566,3818
4157.2,9390.7,5125.8,-1997.3,93750,3712.6,16564.4,3820.5
4157.5,9398.2,5126.3,-1994.9,93750,3713.9,16561.1,3819.9
4161.7,9402.9,5135.3,-1993.3,93750,3719.7,16549,3813.4
4160.6,9399.6,5142.4,-1993.1,93750,3722.6,16541.8,3812.6
4154.6,9402.2,5140.1,-1994.4,93750,3721,16542.2,3816.2
4151.9,9399.6,5136,-1995.3,93750,3717.4,16547,3821.5
4145.8,9390.7,5127.3,-1997.1,93750,3714.6,16569.1,3842.9
4141.7,9385.5,5121.2,-2004.1,93750,3709.8,16602.6,3867.7
4146.7,9391.6,5127.3,-2004.8,93750,3707.7,16610.7,3861
4154.8,9397.5,5134.7,-2000.8,93750,3708.1,16607.2,3848.4
4163.6,9402,5141.5,-1997,93750,3712,16600.9,3839.2
4169.3,9402,5145.6,-1995.3,93750,3715.3,16596.3,3834
4165.4,9403.7,5146,-1994.1,93750,3720.4,16592.5,3830.7
4161.8,9404,5142.4,-1993.9,93750,3718.6,16588.5,3825.7
4163.3,9405.7,5143.7,-1998.5,93750,3711.9,16565.9,3800.9
4158.7,9402.2,5157.4,-1996.9,93750,3708.5,16543.7,3789.3
4149.8,9395,5166.1,-1998.9,93750,3706.6,16540,3794.3
4159.8,9405.1,5134.3,-1996,93750,3715.7,16535.6,3800.9
4163.3,9412.6,5124.5,-1988.1,93750,3723,16531.4,3808.9
4160.1,9411,5134.6,-1987,93750,3722.9,16531.4,3815
4161.8,9407.9,5142.6,-1989.4,93750,3721.5,16531.5,3818.1
4160.3,9400.7,5144.2,-1993.6,93750,3716,16538.9,3822.8
4154.5,9389.6,5140.2,-1999.1,93750,3707.5,16562.6,3833.4
4150.9,9385.1,5135.6,-2002.5,93750,3702.4,16574.2,3833.1
4149.6,9386.5,5132.4,-2002.6,93750,3700.3,16576.5,3828.8
4150.9,9388.5,5132.9,-2001.8,93750,3704.7,16573.5,3823.9
4152.3,9397,5135.6,-1998.5,93750,3713.4,16560.4,3815.4
4154.7,9402.1,5137,-1995,93750,3721,16549.6,3813.7
4156.3,9403.9,5142,-1992.8,93750,3722.4,16545.4,3816.1
4158.1,9401.4,5145.1,-1993.1,93750,3715.5,16547.2,3817.3
4160.5,9396.9,5143.6,-1994.9,93750,3707.2,16546.2,3810.1
4162.5,9397.3,5135.2,-1996,93750,3702.3,16549.1,3811.5
4161.5,9394.8,5127,-1999.8,93750,3698.5,16554.7,3813.3
4162.5,9390.5,5132.9,-2002.9,93750,3702.9,16551.8,3811.2
4163.4,9393,5140.1,-2001.1,93750,3706.6,16539.9,3804.2
4161.9,9395.7,5145.8,-1998,93750,3710.5,16533.5,3804.2
4159.9,9397.5,5148,-1995,93750,3714.2,16531.1,3808.2
4160.1,9399.7,5144.8,-1993.2,93750,3716.1,16532.4,3813.2
4156.3,9394.2,5138.7,-1994.3,93750,3716.7,16552.5,3835.7
4149.4,9387.7,5133,-2001.3,93750,3712.3,16588.4,3862.2
4149.9,9384.2,5133,-2005.2,93750,3706.6,16601.6,3856.8
4152,9385.1,5133.7,-2004,93750,3704.8,16601.9,3845.2
4150.1,9391.2,5138.3,-2001.4,93750,3706.8,16598.7,3836.5
4142.7,9393.1,5158.1,-2000.4,93750,3708.9,16594.8,3830.8
4139.6,9396.6,5169.2,-1999.4,93750,3714,16590.1,3827.5
4157.9,9404.1,5142.5,-1996.2,93750,3720.4,16583.9,3823.4
4171.3,9404.2,5143.7,-2000.5,93750,3717.4,16561.6,3801
4174.3,9401.1,5142.8,-1998.3,93750,3716.8,16542.3,3792.4
4166.5,9400.2,5131,-1996.4,93750,3715.1,16541.1,3798.7
4161.4,9398.1,5123.8,-1996,93750,3714.3,16540.6,3804.5
4157.8,9394.2,5133.8,-1997.4,93750,3713.7,16540,3808.7
4153.8,9393.3,5139.9,-1999.3,93750,3715.8,16538.7,3812
4157.9,9397.3,5142,-1998.7,93750,3717.8,16535.2,3814
4160.2,9398.2,5142.1,-1996.6,93750,3716.1,16539.2,3819
4156.4,9392.1,5135.5,-1997.3,93750,3710.7,16564,3832.2
4156.1,9388.7,5131.6,-1999,93750,3708.9,16576.4,3833.6
4158,9387.7,5127.6,-2000.7,93750,3705.2,16580.1,3829
4155.5,9389.2,5124.3,-2001.5,93750,3703.5,16579.6,3821.4
4156.5,9390.9,5129.2,-2000,93750,3705.2,16568.4,3810.1
4155.1,9389.8,5133.4,-1998.8,93750,3707.7,16559.5,3806.2
4153.3,9392.9,5139.9,-1996.1,93750,3711.4,16553.7,3807.6
4157.2,9394.4,5141.5,-1996.2,93750,3711.5,16552.2,3809.3
4159.9,9397.9,5141.5,-1992.9,93750,3709.7,16549.4,3805.8
4160.8,9397.4,5135.7,-1991.8,93750,3711,16550.7,3810
4160.8,9392.7,5130.6,-1995.1,93750,3711.3,16553.8,3814.1
4160.7,9392.7,5128.3,-1997.3,93750,3707.8,16555.2,3814
4160.4,9394.1,5125.8,-1998.5,93750,3707.2,16547,3806.8
4158.8,9391.3,5125.9,-2000.4,93750,3708.8,16542.9,3806.8
4155.9,9391.6,5125.8,-2001.7,93750,3712.4,16542.4,3810.9
4151.7,9389.8,5134.5,-2002.2,93750,3714.3,16543.7,3815.6
4145.1,9385.4,5154.4,-2003.1,93750,3714.1,16563.2,3836.3
4140.1,9389.3,5146.8,-2005.2,93750,3713.5,16596.7,3860.8
4154.1,9393.7,5126.1,-2003.4,93750,3714.1,16608.5,3856.4
4154.6,9394.1,5129.6,-2001.6,93750,3711.9,16609.6,3845
4151.1,9392.5,5129.5,-2000.5,93750,3711.9,16608.4,3836.3
4145.2,9392.5,5130.8,-2000.3,93750,3710.4,16606.8,3830.8
4146.8,9392.3,5136.2,-2000.2,93750,3710.3,16604.2,3826.3
4152.3,9393.2,5139.1,-2001.3,93750,3710.4,16599.2,3820.5
4161.7,9399.5,5145.2,-2005.8,93750,3712.5,16572.4,3796.4
4164.3,9403.5,5153.1,-2000.8,93750,3718.5,16546.8,3787.4
4161.6,9400.8,5153.9,-1999.4,93750,3719.3,16542.8,3795.1
4159.9,9397.8,5149.4,-2000.6,93750,3717.2,16544.5,3802.2
4156.4,9396.1,5142.6,-2000,93750,3717.1,16545.7,3807.4
4152.6,9391.7,5136,-2001.5,93750,3715.1,16547.6,3811.1
4152.5,9389.9,5132.3,-2002.6,93750,3714.1,16547.7,3813.3
4153,9391,5128.5,-2002.8,93750,3715.8,16550.8,3818.4
4150.1,9386,5123.2,-2003.9,93750,3712.4,16572.5,3832.1
4151.9,9387.1,5126.4,-2004.8,93750,3711.1,16582.4,3833.8
4154.6,9391.9,5130,-2004.3,93750,3715.2,16581.3,3829.8
4155.8,9392.2,5137.2,-2003.6,93750,3716.4,16577.6,3825.3
4153.9,9390.5,5141.1,-2003,93750,3715.2,16569.9,3817
4151.1,9386.8,5140,-2005.4,93750,3712.7,16566.3,3814.1
4147.6,9386.6,5135.8,-2005.2,93750,3710.2,16565.7,3814.6
4142.5,9388.2,5130.3,-2001.3,93750,3706.3,16567.4,3814.8
4143.5,9388.3,5134,-1998.6,93750,3709,16563.9,3809.1
4144.5,9387.9,5137.8,-1998.3,93750,3714.3,16562.5,3813.4
4146.1,9390.3,5141.7,-1999.8,93750,3715.7,16564.4,3818.1
4149.3,9390.3,5144.3,-2002.6,93750,3714.3,16565.7,3818.2
4153.9,9390.2,5144.4,-2004.7,93750,3714.2,16559.8,3812.2
4154.3,9385.8,5138.9,-2006.3,93750,3714.7,16559,3812.1
4150,9382.5,5137.7,-2008.5,93750,3711.2,16561.6,3814.1
4140.5,9378.5,5148.5,-2010.2,93750,3705.1,16567,3816.7
4138.8,9382.7,5130.1,-2007.5,93750,3709.3,16586.9,3837.6
4145.2,9384.4,5109.8,-2008.2,93750,3713.9,16619.5,3864.8
4145.2,9387.9,5125.9,-2007.7,93750,3714.8,16630.8,3860.8
4149.6,9391.6,5132.5,-2004.2,93750,3716.7,16631.9,3849.7
4151.8,9392.5,5131.5,-2002.7,93750,3716.3,16633.9,3842.3
4149.2,9392.4,5133,-2002.2,93750,3715,16634.8,3836.8
4147.3,9388.7,5132.1,-2003.3,93750,3712.8,16634.8,3832.5
4146.9,9384.7,5128.1,-2007.1,93750,3708.1,16633.3,3826.2
4153.3,9390.3,5132.8,-2010.8,93750,3707.8,16607.9,3800.4
4157.6,9396.9,5140.5,-2003.6,93750,3713.5,16581,3789.8
4154.5,9399.4,5141.7,-1996.9,93750,3715.3,16574.2,3796.7
4154.4,9398.6,5143.7,-1994.1,93750,3716.8,16572.2,3803.1
4157.4,9397,5143.7,-1993.5,93750,3718.4,16572.4,3808.1
4154.2,9397.1,5138.9,-1993.6,93750,3715.5,16576.2,3812.3
4148.8,9395,5137.7,-1995.4,93750,3712.3,16580.1,3814.4
4145.1,9390,5129.9,-1998.4,93750,3708.7,16587.6,3818.9
4140.2,9383.1,5115.6,-2001.4,93750,3701.7,16609.9,3829.7
4140.5,9384.6,5115.5,-2001.1,93750,3701.6,16617.2,3829.4
4146,9385.9,5123.1,-2002.3,93750,3703.7,16615.4,3825.5
4151,9391.1,5134.1,-2003.1,93750,3710.2,16609.1,3820.7
4154.4,9396.6,5143.8,-1999.1,93750,3715,16596.9,3812.8
4154,9396.5,5144.3,-1997.7,93750,3714.4,16592.3,3811.6
4151.9,9398.5,5134.7,-1996.3,93750,3712.3,16593.3,3814
4149.7,9391.3,5133.8,-1999,93750,3706.3,16597,3814.5
4145,9378.2,5148.4,-2005.2,93750,3698.8,16596.4,3808
4140.6,9383,5138.6,-2004.6,93750,3701.7,16596.8,3810.1
4148.7,9390.1,5117.7,-2001.4,93750,3708.9,16597.6,3815.3
4151.7,9389.8,5128.7,-2002.3,93750,3712,16594.6,3815.7
4157.7,9393.9,5138.1,-2002.1,93750,3717.7,16583.2,3810.5
4155.6,9396.6,5137.6,-2001.4,93750,3719.2,16579.3,3811.2
4154.9,9394.1,5134.4,-2002.6,93750,3715.6,16581.6,3814.4
4152.4,9392,5131.5,-2002.7,93750,3712.2,16587.8,3818.2
4143.3,9386.8,5125,-2004,93750,3709,16610.9,3838.3
4133.1,9381.3,5122.6,-2010.3,93750,3707.8,16644.3,3863.2
4131.5,9384.1,5131.2,-2011.1,93750,3709.2,16652.8,3857.7
4137.2,9390.4,5131.2,-2007.3,93750,3714.3,16649.4,3847.2
4145.1,9399.9,5132,-2002,93750,3720.5,16643.9,3839.8
4145.9,9401.4,5143.3,-2000.5,93750,3721.4,16640.1,3834.6
4148,9398.5,5146.4,-2002,93750,3719.8,16639.2,3830.9
4148.8,9396.6,5139.9,-2003.9,93750,3718.1,16638.8,3825.9
4155.1,9398.3,5134.8,-2007.8,93750,3712.8,16618.4,3801.9
4156.2,9396.9,5131.4,-2003.9,93750,3715.6,16596.3,3791.4
4152.1,9392.3,5131.1,-2002.2,93750,3717.2,16592.7,3798.4
4153.4,9393.3,5136.4,-2001.5,93750,3717.9,16590.8,3804.3
4151.3,9398.5,5139.1,-1997.4,93750,3722.3,16589.3,3810.6
4151.8,9400.2,5140.3,-1996.6,93750,3723.9,16590,3815.7
4154.6,9399,5142.6,-1997.1,93750,3723.4,16592.2,3818.7
4153.5,9393.4,5138.8,-2000,93750,3721.7,16600.2,3823.9
4144.6,9385.6,5127,-2005.2,93750,3714.3,16625.3,3835.8
4141,9384.1,5122.3,-2009.6,93750,3709.5,16636.8,3835.4
4140.2,9384.1,5128.7,-2010.6,93750,3709.4,16635.4,3829.7
4135,9387.7,5145.6,-2008.6,93750,3707.8,16632.9,3824.8
4135.4,9397.7,5150.5,-2004.9,93750,3712.1,16621.9,3815.4
4148.2,9409.1,5128.2,-1996.4,93750,3720.8,16612.7,3814
4150.7,9410.2,5133,-1992.4,93750,3719.8,16611.5,3816.4
4151.9,9403,5135.7,-1993.6,93750,3721.3,16612.3,3818.1
4150.4,9396.7,5132.6,-1993.9,93750,3718.7,16611.9,3814.4
4144.5,9397.2,5128.3,-1994.7,93750,3716,16614.8,3817.1
4137.8,9394,5128.2,-1998.5,93750,3714.4,16618.6,3819.5
4137.5,9395.5,5130.1,-1999.1,93750,3715.1,16617,3818.1
4147.3,9400.9,5131.8,-1997.2,93750,3716.7,16607.3,3811.8
4148.4,9403.4,5134.7,-1996.4,93750,3719.8,16602.9,3811.3
4152.7,9403.4,5139.1,-1997.3,93750,3724.4,16602.6,3814.7
4155.2,9401.6,5140.3,-1997.7,93750,3725.8,16606.1,3819.4
4150.8,9397.7,5135.7,-1997.7,93750,3726.8,16627.7,3841.1
4146.4,9390.6,5130.4,-2002.9,93750,3723.3,16663.5,3867.4
4146.7,9389.4,5128.7,-2004.1,93750,3718.7,16677.5,3861.9
4145.6,9396.2,5129.6,-2000.5,93750,3719.1,16676.8,3849.7
4145.1,9403.6,5137.4,-1995.2,93750,3721.7,16670.7,3840.3
4144.8,9408.3,5147.1,-1990.8,93750,3726.8,16663.8,3835
4147.5,9412.3,5152.9,-1986.3,93750,3733.2,16656,3831.5
4152.4,9415.2,5153.3,-1984.7,93750,3733.9,16648.5,3826.8
4163.9,9419.2,5151.8,-1988.3,93750,3733,16621.9,3803.6
4171,9420.2,5148,-1983.7,93750,3735.9,16596.3,3794.7
4170.2,9414,5140.9,-1982.5,93750,3733.7,16590.8,3801.9
4165,9411.6,5138.9,-1984,93750,3729.1,16588.5,3807.8
4159.5,9412.2,5142.3,-1983.7,93750,3727.7,16586.3,3812.3
4158.8,9412,5143.4,-1984.5,93750,3728.8,16584.9,3816.1
4163.4,9414.7,5146,-1983.9,93750,3731.4,16580.8,3818.5
4158.6,9411.2,5169.1,-1986.8,93750,3727.5,16583.6,3822.4
4152.8,9408,5157.4,-1989.3,93750,3727.2,16604.2,3835.1
4165.3,9407.3,5141.6,-1990.9,93750,3726.9,16612.8,3836.8
4165.9,9405.3,5146.9,-1994.7,93750,3723.6,16612.5,3832.3
4161.7,9407.6,5145.9,-1994,93750,3724.5,16607.3,3826.5
4161.2,9412,5144.9,-1990.4,93750,3726.3,16594.6,3817.9
4161.2,9414.9,5143.7,-1988.5,93750,3728.9,16584.8,3815.3
4163.7,9413.9,5145,-1987.2,93750,3732.8,16577.4,3817.7
4168.5,9415,5147.9,-1986.7,93750,3734.8,16571.7,3819
4170.6,9416.7,5152.4,-1983.7,93750,3734.9,16564.2,3814.5
4165.3,9419.1,5154,-1980.6,93750,3735.1,16562.2,3818.8
4162.9,9417.5,5151.8,-1982.7,93750,3729.8,16565.1,3822.6
4163.2,9412.8,5147.9,-1987.8,93750,3725.7,16565.4,3822.4
4166.6,9410.3,5152.7,-1990.9,93750,3726.8,16554,3815
4162.3,9411,5155.3,-1989.3,93750,3727.5,16546.7,3813.6
4155.7,9414.9,5158.2,-1987.2,93750,3728,16543.3,3815.9
4156,9416.8,5161,-1985.1,93750,3730.7,16540.6,3819.8
4155.8,9412.5,5163.7,-1983.8,93750,3734.4,16556.1,3842.1
4156.2,9410.6,5160.9,-1988.4,93750,3732.6,16587.7,3869.6
4161.8,9416.7,5153.2,-1988.9,93750,3732,16597.7,3864.9
4167.3,9417.1,5143.7,-1987.6,93750,3732.7,16594.8,3854
4166.7,9413.1,5141.2,-1987.8,93750,3732.4,16590.9,3846.4
4165,9410.7,5144.8,-1988.3,93750,3730.5,16586.9,3841.3
4164.6,9412,5146.3,-1986.5,93750,3731.1,16581.2,3837.8
4167.6,9411.4,5151.7,-1987.1,93750,3734.2,16574.5,3833.3
4172.6,9420.5,5158.6,-1990.5,93750,3738,16546.4,3809.6
4167,9428.2,5164.4,-1982.6,93750,3747.1,16518.7,3801.6
4167,9423.5,5161.1,-1978.4,93750,3745.2,16513.9,3810
4167.6,9416,5159,-1979.5,93750,3739.4,16516,3816.9
4160.2,9409.9,5170.4,-1981,93750,3731.5,16518.3,3820.3
4156.8,9412,5157.6,-1981.8,93750,3729.7,16520.5,3822.8
4164.9,9413.7,5137,-1981.3,93750,3731.7,16518.6,3824.5
4160.1,9409.9,5144.4,-1984,93750,3730.2,16521.2,3828.2
4150.6,9406.4,5145.9,-1985,93750,3727.6,16541.4,3840.8
4152.1,9408.6,5145.9,-1985.3,93750,3728.8,16549.8,3842
4157.7,9411.5,5147.8,-1985.6,93750,3732.2,16548.9,3838.4
4160.6,9412,5147.6,-1987.2,93750,3732.9,16546.5,3835
4164.8,9409.9,5149.6,-1990.4,93750,3733,16538.5,3827.2
4164.3,9405.6,5147.2,-1993.9,93750,3730.7,16534.8,3825.2
4163.9,9401,5146.3,-1995.7,93750,3727.3,16534.7,3826.9
4162.7,9398.8,5146.8,-1996.2,93750,3726.5,16534.2,3827.1
4158,9402.4,5145.2,-1992.5,93750,3727.7,16529.6,3822.4
4157.5,9405.7,5145.9,-1990.2,93750,3730.8,16528.3,3826.1
4158.7,9407.3,5146.6,-1990.9,93750,3732.4,16530.2,3830
4163.3,9407.7,5149,-1992.2,93750,3733.4,16529.6,3829.3
4165.7,9413.4,5146.8,-1990.3,93750,3733.4,16521.2,3821.9
4161.9,9405.5,5143,-1990.5,93750,3731,16519.3,3821
4158.8,9396.4,5143.1,-1995.3,93750,3728.9,16521.6,3822.9
4157.7,9395.8,5141.5,-1997.9,93750,3726,16524.4,3825
4153.9,9393.8,5141.5,-1998.8,93750,3728.2,16542.2,3844
4151.1,9390.6,5142.9,-2004.2,93750,3729.8,16571.5,3868.6
4153.8,9397.4,5148.3,-2002.7,93750,3733.6,16578.2,3864.1
4157.2,9407.7,5149.5,-1996.4,93750,3735,16575.5,3853.1
4157.7,9413.2,5147.9,-1992.1,93750,3729.9,16575,3844.9
4157.9,9414.6,5147.8,-1990.7,93750,3724.1,16576.1,3838.5
4158.8,9412.7,5146.2,-1989.8,93750,3719.4,16576.8,3833.8
4159.3,9407.2,5142.3,-1992.1,93750,3712.4,16576.8,3826.9
4163.2,9415.9,5145.3,-1995,93750,3710.4,16552.9,3800.3
4159.3,9421.3,5160.1,-1988.9,93750,3713.7,16527.7,3788.4
4145.8,9423.2,5170.4,-1984.2,93750,3714.9,16523,3794.5
4155.6,9432.1,5147.8,-1978.1,93750,3725.6,16518.9,3801.6
4163.6,9431.9,5141.4,-1976.3,93750,3725.1,16518.7,3808.1
4159,9427.3,5143.6,-1979.2,93750,3718.2,16524.4,3811.8
4155.4,9425.6,5140.5,-1980.8,93750,3713.5,16529.5,3813.2
4146.1,9425.8,5134.3,-1982.8,93750,3707.8,16538.2,3816
4138,9422.5,5125.6,-1985.8,93750,3698.2,16563.1,3826.2
4144.5,9418.1,5129.4,-1990,93750,3697.3,16572.4,3824.2
4148.1,9422.1,5134.7,-1991.3,93750,3701.5,16570.3,3818.9
4149.3,9432.2,5138.9,-1987.8,93750,3703.1,16567.7,3815
4149.6,9442.1,5144.6,-1984.8,93750,3708.1,16558.4,3806.4
4149.8,9442.4,5145.7,-1984.4,93750,3707,16555.5,3805.1
4148.5,9442.9,5142.8,-1986,93750,3700.1,16559.4,3806.1
4143.6,9443,5137.1,-1987.6,93750,3693.1,16565.1,3805.1
4140.1,9442.2,5131.1,-1987.2,93750,3686.7,16566.2,3797.5
4140.9,9444.8,5129.4,-1985.5,93750,3684.1,16568.6,3798.3
4140.8,9451.2,5131.2,-1983.8,93750,3683,16572.4,3800
4142.7,9460.2,5132.8,-1980.3,93750,3684.1,16573.4,3798.5
4149.4,9464.1,5136.1,-1976.5,93750,3687.6,16567.1,3792.4
4151.1,9466.3,5138,-1975.9,93750,3685.1,16568.6,3791.5
4143.7,9468.5,5136.9,-1977.3,93750,3678.5,16577.8,3793.4
4140.3,9466.8,5131.2,-1978.1,93750,3677.9,16585.9,3795.4
4128.4,9468.6,5118.9,-1977.1,93750,3675.4,16610.1,3815.1
4119.8,9468.7,5112.9,-1981.8,93750,3667.4,16651.1,3840.2
4129.3,9471,5112.7,-1985,93750,3670.5,16665.5,3834.5
4140.5,9481.6,5113.6,-1980.5,93750,3674.2,16665.5,3823
4143.5,9486.1,5130.7,-1978.5,93750,3672,16666.5,3813.9
4147,9490.7,5142.3,-1977.5,93750,3668.6,16669.7,3807
4155.1,9490.2,5141.3,-1978.9,93750,3664.7,16675.8,3802.4
4160.7,9493.1,5129.8,-1981.5,93750,3662.4,16679.2,3795.4
4158.6,9501.1,5130.8,-1986.1,93750,3655.5,16660.9,3768.6
4149.5,9498.9,5150.4,-1982.7,93750,3652.8,16642.5,3756
4149.5,9500.3,5135.4,-1978,93750,3655.8,16641.1,3760.7
4160.2,9505.5,5120.6,-1974.2,93750,3660.4,16641.1,3767
4160.8,9508,5133.5,-1970.3,93750,3660.5,16643,3772.1
4163.5,9505.8,5137.8,-1970,93750,3659.9,16648.9,3776.6
4168.1,9506.9,5137.2,-1971.1,93750,3658.5,16654.4,3778.7
4169.4,9510.5,5131.5,-1972.6,93750,3652.1,16666.1,3782.4
4162.4,9506.9,5121,-1975.5,93750,3640.1,16696.6,3792.8
4154.4,9504.8,5116.7,-1978,93750,3637,16713.5,3792
4153.5,9505.5,5121.7,-1979,93750,3638,16716.7,3785.6
4156.3,9510.6,5125,-1978.4,93750,3640.3,16714.9,3779.2
4159.4,9522.2,5132.1,-1973.2,93750,3643.9,16704.6,3769
4163.1,9524.6,5140,-1969.1,93750,3647.2,16698.6,3765.9
4167.2,9523.4,5144.1,-1968.8,93750,3650.2,16697.6,3767.7
4165.6,9524.1,5141.4,-1967.9,93750,3650.5,16698.7,3768.9
4163.1,9522.9,5138.5,-1964.8,93750,3647.2,16698.4,3764.6
4160.6,9521.5,5132,-1963.4,93750,3644,16702.1,3768.2
4159.3,9519.2,5128.7,-1966.2,93750,3637.9,16709.8,3771.6
4158.8,9518.3,5133.8,-1966.9,93750,3637.6,16711.7,3770.5
4162.1,9522.9,5143.3,-1963.8,93750,3641.4,16702,3763.3
4165.8,9526.8,5147.4,-1961,93750,3644.3,16697.3,3762.7
4170.2,9531.1,5146.5,-1960.4,93750,3650.2,16697.2,3765.8
4165.6,9534.6,5145,-1960.9,93750,3656.8,16698.7,3771.3
4155.2,9531.9,5141.3,-1962.2,93750,3658.5,16718.9,3793.7
4148.6,9525.3,5133.8,-1967.9,93750,3658.1,16752.8,3820.9
4145.4,9531,5123.7,-1964.9,93750,3655.8,16765.1,3817.4
4145.9,9530.8,5136.4,-1963.2,93750,3647.2,16769.5,3806.9
4149.6,9525.4,5156.1,-1965.9,93750,3646.8,16769.3,3797.9
4159.4,9534.5,5142.5,-1960.4,93750,3656.8,16763.7,3792.7
4176.6,9540.6,5123.9,-1954.5,93750,3667.6,16757.8,3791.9
4178.2,9533.7,5134.6,-1956.7,93750,3670.3,16753.2,3788.9
4184.6,9532.9,5145.1,-1963.4,93750,3673.1,16727.1,3766
4184.6,9533.3,5148.1,-1960.1,93750,3677.3,16702.4,3757.5
4180.1,9529.6,5145.2,-1959.1,93750,3674.7,16696.9,3764.4
4171.9,9525.6,5148.4,-1960,93750,3672.1,16694.5,3770.8
4162.7,9529.5,5150.5,-1954.6,93750,3670.8,16692.8,3776.1
4160.8,9530.3,5149.1,-1952.2,93750,3672.3,16691.6,3780.1
4166,9529.5,5149.2,-1951.8,93750,3680.1,16686.3,3782.8
4172.5,9526.8,5148.5,-1951.2,93750,3682.8,16686.6,3788.3
4168.9,9524.1,5138.6,-1950.7,93750,3678.9,16706.8,3802.4
4166,9524.3,5139.9,-1951,93750,3672.7,16717.8,3804.7
4166.5,9522.4,5145.7,-1953.1,93750,3667.9,16719.6,3799.7
4163.2,9518.5,5149.5,-1954.2,93750,3671.2,16716.2,3794.5
4160.1,9517,5153.2,-1952,93750,3679.4,16701.3,3785.9
4158.9,9517.8,5154.2,-1948.6,93750,3684.7,16689.2,3784.9
4163.5,9524.1,5151.7,-1944.8,93750,3684.4,16683.4,3788.1
4168.8,9527.5,5154.2,-1942.9,93750,3681.1,16680.5,3789
4173.8,9524.4,5158.3,-1942.5,93750,3684,16673.4,3784.5
4174.3,9520.7,5158.5,-1942.7,93750,3688.4,16670.4,3789.3
4173.7,9515,5157.6,-1945.9,93750,3689.3,16670.3,3793.9
4171.3,9515.2,5155.2,-1947.4,93750,3687.1,16667.7,3793.5
4168.4,9519.5,5154.3,-1945.2,93750,3687.5,16655.5,3786.9
4165.2,9517.8,5153.2,-1943.9,93750,3689.1,16646.9,3785.9
4164.4,9518.3,5154.9,-1941.7,93750,3691.6,16641.4,3788.4
4166.7,9518.5,5159.6,-1939.8,93750,3695,16638,3793.2
4164.3,9518.6,5158.6,-1939.2,93750,3698,16653.2,3816.2
4159.1,9521.5,5152.8,-1943,93750,3695.7,16683.9,3843.2
4160.3,9522.3,5159.7,-1944.8,93750,3693.6,16693,3838.1
4155,9513.7,5181.1,-1945.7,93750,3694.8,16689.5,3826.4
4154.2,9512.9,5170.7,-1943.7,93750,3699.3,16683.3,3818.3
4165.8,9517,5144.9,-1940.5,93750,3706.9,16674.4,3814.2
4168.4,9520.1,5143.1,-1937,93750,3709.8,16664.7,3811.7
4168.5,9520.9,5151.1,-1936.9,93750,3709.1,16655.1,3808
4172,9524.6,5175.5,-1943.3,93750,3706.1,16627.6,3784.8
4176.9,9527.6,5186.4,-1939.8,93750,3712.7,16598.7,3775.5
4179.2,9522.8,5182.4,-1938.2,93750,3713.7,16590.3,3782.8
4179.2,9521,5175.4,-1938,93750,3712,16587.1,3789.2
4177.1,9517.5,5170.3,-1936.7,93750,3712.4,16585.7,3795
4165.7,9512.6,5169.5,-1937.1,93750,3713.4,16583.6,3799.2
4160,9511.9,5168.4,-1937.6,93750,3714.2,16578,3801
4156.2,9515.8,5166.1,-1935.5,93750,3713.7,16575.9,3805
4155.8,9509.9,5159.4,-1935.6,93750,3709.1,16592.3,3817.2
4163.7,9510.4,5162,-1936.3,93750,3710.3,16596.9,3818.4
4172.9,9513.4,5159,-1935.9,93750,3712.9,16594,3816.1
4175.7,9514.6,5153.2,-1936.1,93750,3714,16590.4,3813.5
4173.1,9515.6,5160.7,-1935.8,93750,3716.5,16580,3806.4
4169.2,9508.8,5164.2,-1938,93750,3712.8,16575.4,3805.3
4166.6,9505.3,5162.3,-1939.4,93750,3710.4,16574.1,3807.5
4165.1,9503.4,5160.2,-1940.8,93750,3709.3,16572,3808.2
4165.5,9504.6,5161.5,-1940.1,93750,3709.3,16565.8,3803.7
4168.1,9507,5165.1,-1938.1,93750,3713.1,16562,3807.9
4169.6,9507.2,5169,-1938.3,93750,3716.3,16561.2,3812.3
4166,9504.2,5183.3,-1939.6,93750,3715.9,16557.9,3811.6
4162.2,9508.4,5182.2,-1937.4,93750,3716.5,16547.4,3804.8
4164.5,9513,5154.2,-1932.4,93750,3719.4,16542.6,3805.8
4158,9504.6,5156.1,-1934.8,93750,3716.6,16541,3807.2
4156.8,9501.3,5156.9,-1935.9,93750,3713.4,16540.8,3809.2
4154.2,9499,5156.3,-1936.2,93750,3716.5,16556.3,3829.5
4153.7,9497.3,5157.4,-1942.1,93750,3716,16585.6,3855.2
4162.2,9501.6,5163.3,-1943.7,93750,3717,16593.2,3850.4
4166.4,9507,5165.7,-1940.8,93750,3720.9,16590,3840.2
4168.4,9508.4,5165.5,-1938.3,93750,3721.4,16587.4,3833.5
4169.2,9505.1,5164,-1937.9,93750,3720,16584.7,3829.1
4168.1,9499.9,5157.3,-1939.7,93750,3719.8,16582.4,3826.7
4168.6,9500.8,5145.5,-1941.2,93750,3720.1,16576.5,3821.8
4170.5,9504.3,5156.3,-1945.1,93750,3719.3,16548.7,3798.2
4169,9505.9,5171.8,-1940.4,93750,3724.3,16521.2,3788.6
4167.5,9502.8,5173.9,-1936.8,93750,3726.3,16513.6,3795.8
4170.8,9503.2,5170.9,-1934,93750,3728.2,16512.9,3804.6
4176.7,9502,5167,-1933.2,93750,3730.5,16513.3,3811.7
4175,9498,5160.1,-1935.6,93750,3728.3,16515.9,3816.5
4170.2,9494.4,5155.5,-1938.4,93750,3725.4,16517.9,3818.4
4165.1,9489.5,5152.8,-1941.3,93750,3720.7,16523.4,3821.5
4154.4,9480.4,5148.8,-1944.8,93750,3713.7,16546,3833
4152.3,9479.2,5152.3,-1947.6,93750,3712.3,16555.3,3833
4155.8,9483.8,5156.4,-1948.4,93750,3716.8,16552.3,3828.3
4159,9490.5,5158.9,-1946.1,93750,3723.7,16545.7,3824
4161.8,9496.2,5162.7,-1942.5,93750,3730.6,16532.8,3816.3
4160.3,9489.3,5167.9,-1941.7,93750,3731.6,16526.4,3815.9
4156.8,9480.3,5179.6,-1945.1,93750,3724.1,16527.1,3817.6
4152.6,9477.4,5177.2,-1948.5,93750,3719.5,16527.5,3815.2
4154,9483.5,5145.6,-1944.7,93750,3724.5,16521.7,3809.7
4146.4,9485.1,5141.3,-1941.9,93750,3726.4,16520.8,3815.4
4144.6,9483.7,5146.4,-1943.9,93750,3727.3,16523.4,3821
4152.7,9483,5151.2,-1947.3,93750,3729.9,16522.6,3822.1
4159.9,9486.2,5156.5,-1947.1,93750,3735,16512.7,3817.1
4159.5,9488.3,5153.2,-1947,93750,3735.8,16511.9,3819
4158.4,9483.8,5150.4,-1948.3,93750,3732.1,16518.3,3823
4151.7,9474.6,5147.8,-1950.2,93750,3733.1,16523.6,3827.2
4143.7,9465.7,5147.4,-1952.4,93750,3731.6,16545,3848.5
4136.1,9462.1,5144.4,-1960.2,93750,3722.5,16582.1,3874.2
4138.3,9466.8,5148.7,-1961.8,93750,3721.9,16593,3867.5
4144.5,9470.2,5150.2,-1959.3,93750,3727.1,16590.4,3856.8
4152.2,9478.8,5148.8,-1954.5,93750,3732.9,16586.2,3849.3
4156.3,9482.2,5146.8,-1950.7,93750,3736.1,16583,3845.4
4158.2,9480.9,5149.5,-1949,93750,3734.7,16582.1,3842.7
4157.4,9476.9,5146.4,-1951.2,93750,3728.6,16581.5,3836.6
4158.8,9475.5,5145.5,-1956.5,93750,3727.3,16558.6,3811.4
4156.8,9474.1,5148.9,-1952,93750,3728,16536.4,3801
4151.8,9473.7,5149,-1948.5,93750,3725,16532.4,3806.2
4150.6,9475.4,5150.8,-1946.6,93750,3725.2,16530.8,3811.8
4153.7,9478.3,5152.9,-1942.5,93750,3727.6,16529.6,3816.4
4156.2,9478.4,5153.6,-1940.8,93750,3728.8,16531.4,3820.4
4154.8,9475.4,5157.9,-1941.7,93750,3729.7,16532.9,3822.6
4152.2,9473.5,5150.9,-1943,93750,3728.6,16538.3,3826.2
4142.8,9465.5,5136.7,-1944.9,93750,3722.6,16561.3,3837.6
4132.4,9459.1,5149.5,-1949.8,93750,3711.2,16574.3,3837.4
4119,9460.2,5161,-1953.3,93750,3708.6,16575.9,3831.6
4126.2,9469.9,5138.9,-1950.9,93750,3720,16569,3827.6
4137.4,9478,5141.2,-1946,93750,3728.1,16552.1,3819.5
4140.4,9478,5149.8,-1943.8,93750,3728.5,16542.9,3818.4
4143.1,9478,5149,-1943.2,93750,3729.3,16540.7,3821.7
4143.1,9475.3,5150,-1943.7,93750,3728.1,16539.6,3822.7
4139.1,9471.7,5147.4,-1943.6,93750,3724.4,16537.9,3817.6
4135.3,9464.1,5143.8,-1945,93750,3722.9,16539.7,3820.8
4130.8,9462,5141.7,-1948.8,93750,3719.1,16544,3823.5
4130.3,9465.8,5141.7,-1951,93750,3717,16543.2,3821.8
4139.2,9466.7,5146.2,-1952.1,93750,3720.5,16531.9,3814.2
4145.1,9468,5146.8,-1952.1,93750,3726.4,16523.6,3813.3
4146.2,9473.2,5143.8,-1951.5,93750,3729.7,16521.2,3817
4142.3,9475.6,5142.3,-1949.6,93750,3734,16521.1,3821.8
4134.4,9468.3,5136.3,-1949.6,93750,3735.8,16538.7,3844
4127,9460.6,5130.7,-1956.1,93750,3733.6,16570.6,3870.3
4124.8,9454.3,5136.5,-1961.1,93750,3731.5,16580.3,3866.1
4125.4,9452.4,5142.1,-1962,93750,3729.1,16579.3,3855.4
4130.8,9458.7,5145.8,-1959.2,93750,3725.4,16577.2,3846.6
4136.9,9462.8,5147.9,-1956.2,93750,3724.3,16574.7,3841.2
4144,9469.1,5145.4,-1952.2,93750,3730.2,16570.2,3837.2
4147.7,9471.3,5146.1,-1950.7,93750,3731.6,16564.7,3831.4
4153.2,9472.5,5151.2,-1956.3,93750,3729,16540.3,3806.8
4152.7,9470.4,5159.8,-1954.1,93750,3729.1,16517.6,3796.4
4142.9,9457.1,5173.4,-1956.2,93750,3721,16516.2,3801.8
4144.2,9455.5,5158.1,-1957.1,93750,3717.2,16517.3,3806.2
4156.1,9461.7,5128.3,-1952.5,93750,3722.2,16515.7,3811.1
4152.6,9461.9,5133.8,-1952.6,93750,3719.6,16516.6,3814.6
4153.8,9464.1,5140.7,-1952.5,93750,3719.6,16516.1,3816.5
4150.9,9463.9,5144.2,-1952.2,93750,3723.4,16519.4,3821.5
4143.4,9455.4,5143.3,-1955.2,93750,3719.9,16542.9,3834.6
4144.5,9451.9,5143.5,-1960,93750,3715.9,16556.8,3835.8
4145.6,9451.7,5141.9,-1964.4,93750,3712,16561.7,3831.2
4143.5,9449.4,5141.5,-1966.1,93750,3713.1,16560.9,3825.3
4142.8,9447.4,5144.3,-1964.9,93750,3714.9,16550.7,3815.5
4143.9,9450.6,5143.7,-1963.1,93750,3714.7,16543.9,3813.3
4146.3,9454.5,5143.7,-1962.2,93750,3714.6,16541.8,3815
4147,9456.5,5147.4,-1960.3,93750,3716.9,16540.4,3815.4
4147.5,9457.7,5151.3,-1957.1,93750,3717.6,16534.9,3809.6
4149.8,9457.4,5147.2,-1955.7,93750,3715.9,16534.6,3812.8
4147,9458.6,5134.2,-1956.3,93750,3715.5,16537.4,3815.9
4139.6,9451.7,5139,-1959.5,93750,3713.1,16538,3815.6
4139.4,9447.3,5149.3,-1962.6,93750,3709.9,16529.6,3808.4
4139.2,9451.9,5144.8,-1961.6,93750,3708.3,16524.4,3805.7
4140.2,9453.1,5143,-1962.9,93750,3710.3,16522.9,3807.8
4141.6,9452.5,5145.7,-1963.3,93750,3714.9,16523.9,3813.3
4140.4,9451.5,5145.7,-1962.8,93750,3715.8,16544.7,3836.1
4140.2,9445,5148.9,-1968.7,93750,3711.7,16581.4,3863.1
4137.6,9442.6,5164,-1972.5,93750,3708.4,16595.5,3857.6
4138,9445.4,5155.6,-1970.4,93750,3710.1,16596.1,3845.2
4149.2,9449.4,5123.5,-1964.8,93750,3713.4,16595.8,3838.8
4147.3,9443.5,5128.9,-1965.8,93750,3712.2,16596,3835
4146,9443.6,5132.6,-1966.7,93750,3713.5,16594.3,3831.9
4146.1,9447.3,5132.6,-1967.5,93750,3714.1,16591.1,3827.2
4152.8,9456.9,5138.2,-1970,93750,3717.5,16566.6,3803.6
4152.2,9464,5143.5,-1962.4,93750,3726,16542.3,3795.4
4146.5,9457.8,5146.4,-1959.8,93750,3726.4,16540.1,3804.2
4139.6,9450.7,5150.2,-1961.1,93750,3724.2,16542.8,3811.4
4138.5,9441.5,5146.4,-1962.2,93750,3719.4,16547.7,3816.4
4137.7,9438.2,5139.8,-1963.6,93750,3714,16553.5,3820.2
4137.5,9437.9,5135.6,-1965.6,93750,3709.7,16556.8,3821.1
4135.8,9438.8,5134.8,-1966.1,93750,3711.4,16561.6,3824
4131.8,9433.9,5132.4,-1967.8,93750,3712,16581.4,3835.5
4131.3,9435.8,5135.7,-1967.7,93750,3712.7,16590.2,3837.2
4135.3,9439.2,5137.6,-1968.1,93750,3714.2,16592.1,3835.2
4137,9442,5136.6,-1968.5,93750,3714.9,16590.9,3830.8
4139.6,9441.7,5139.5,-1968.4,93750,3715.3,16582.5,3821.2
4140.9,9436.8,5138,-1971.4,93750,3711.8,16580.1,3818.6
4140.3,9434.9,5133.2,-1972.5,93750,3710.1,16580.2,3819.9
4140.2,9432.9,5129.5,-1971.8,93750,3708.6,16580.7,3819
4142.3,9433.3,5129.1,-1967.7,93750,3709.3,16577,3813
4144.4,9435.3,5132.9,-1964.3,93750,3713.1,16576.2,3817
4143.4,9436.2,5137.9,-1965,93750,3716.4,16578.6,3821.1
4144.6,9437.4,5141,-1966.4,93750,3716.2,16578.3,3820.3
4146.3,9437.5,5144,-1967.4,93750,3715.3,16571,3813.5
4139.1,9433.8,5146.9,-1969.5,93750,3711,16569.7,3812
4126.5,9431.6,5155.2,-1971.3,93750,3704.8,16572.5,3812.2
4130.4,9438.9,5133.9,-1968.5,93750,3708,16573.4,3813.6
4137.2,9435.1,5124.1,-1969.1,93750,3710.3,16590.9,3833.7
4130.6,9433.8,5133.5,-1974.5,93750,3705.7,16624.6,3859.1
4130.6,9440.3,5141.5,-1975.1,93750,3707.2,16635.4,3854.1
4138.3,9442.6,5145.7,-1973.4,93750,3715.3,16632.6,3844
4142.2,9447.3,5134.5,-1968.5,93750,3717.5,16630.1,3838.1
4142.4,9447.8,5136,-1967.8,93750,3713.4,16629.3,3832.7
4140.9,9441.5,5143.2,-1970.7,93750,3709.2,16628,3828.2
4138,9438.1,5138.4,-1972.8,93750,3706.6,16625.5,3821.5
4141.8,9446.2,5138.9,-1975.1,93750,3709.4,16597.7,3795.3
4147.5,9450.3,5142.9,-1968.3,93750,3714.5,16569.8,3785.2
4147.2,9449.1,5144.7,-1963.6,93750,3714.6,16563.6,3792.5
4143.8,9449.8,5149.7,-1961.7,93750,3715.9,16563.5,3800.4
4137.3,9451.2,5152.2,-1959.5,93750,3720.8,16564.2,3808
4135.8,9451.1,5144.5,-1959.4,93750,3719.9,16567.6,3813.8
4135.7,9446.9,5135.2,-1962.3,93750,3714.9,16571.1,3816.8
4135.8,9439.8,5130.8,-1968,93750,3708.3,16578.6,3820.8
4131.9,9432.4,5125.1,-1972.2,93750,3698.9,16602.1,3831.5
4130.4,9429.9,5130.9,-1974,93750,3698.3,16611.5,3831.7
4132,9430.8,5139.2,-1973.9,93750,3701.9,16608.9,3827.4
4135.1,9438.5,5141.8,-1971.4,93750,3707.7,16604.2,3824.5
4140.7,9444.8,5145.8,-1968.5,93750,3713.8,16593.5,3817.3
4142.3,9443.1,5144.7,-1967.4,93750,3714.1,16588.5,3815.6
4142.3,9438.8,5140.5,-1969.3,93750,3711.2,16589.7,3817.5
4133.7,9437.3,5137.4,-1971.4,93750,3707.8,16592,3818.1
4121,9432.3,5148.5,-1973,93750,3702.3,16590.4,3811.9
4116.9,9432.5,5148.7,-1973.8,93750,3701.7,16590.3,3813.3
4130.2,9439.1,5126.5,-1970.8,93750,3710.1,16588.6,3816.4
4131.9,9439.8,5135.1,-1969.4,93750,3712.7,16585.4,3816.5
4132.1,9444.9,5147.3,-1967.4,93750,3717.2,16575.5,3811.2
4131.9,9446.3,5143.2,-1966.2,93750,3720.2,16572.9,3813
4134.1,9443.5,5131.8,-1966.6,93750,3720.4,16576.2,3817
4137.6,9435.8,5124.3,-1970.6,93750,3715.6,16581.6,3821.1
4133.1,9433.7,5111.5,-1972.3,93750,3713.3,16603.3,3842.3
4127.2,9431,5105.8,-1977.4,93750,3705.4,16639.2,3867.2
4131,9434.8,5114.6,-1979.9,93750,3704.6,16650.6,3861.1
4138.9,9434.2,5123.7,-1980.1,93750,3710.8,16648.4,3849.9
4144.2,9436.2,5133.2,-1977.5,93750,3715.2,16645.8,3842.9
4143.9,9440.4,5139.1,-1973.2,93750,3714.9,16646.4,3839.1
4143.3,9438.3,5144.4,-1971.6,93750,3714.8,16646.4,3835.5
4144.7,9433.6,5143.3,-1973.8,93750,3710.7,16645.4,3828.9
4139.9,9437.9,5139.5,-1978.8,93750,3711.8,16622.3,3803.7
4129.7,9445.4,5135.4,-1970.8,93750,3719.6,16595.6,3794.1
4121.4,9445,5127,-1965.2,93750,3722.3,16586.4,3801.5
4116.4,9444,5130.6,-1963.9,93750,3726.8,16579.7,3809
4116.8,9445,5138.8,-1961.1,93750,3729.2,16575,3815.6
4124.6,9444.1,5140.9,-1961.3,93750,3727,16574.9,3821.5
4133.5,9439.6,5147.6,-1964.6,93750,3721,16578.1,3824.8
4131.6,9434.3,5153.5,-1969.8,93750,3711.1,16588.7,3828.4
4132.8,9430.1,5121.4,-1973.1,93750,3705.5,16616.3,3839.8
4140,9427.4,5103.9,-1975.1,93750,3703.2,16630,3840.4
4139.2,9424.8,5114.7,-1979,93750,3699.7,16631.8,3834
4139.2,9426.4,5123,-1979.9,93750,3704.2,16627.5,3827.5
4142.5,9431.3,5134.5,-1977.6,93750,3712.1,16613.8,3817.7
4144.1,9434,5144.5,-1974.1,93750,3714.7,16606.6,3816.9
4144.1,9436.4,5149.2,-1973.1,93750,3713.7,16606.9,3819.8
4145,9435.5,5145.8,-1974.1,93750,3711.6,16609.3,3820.3
4145,9431.4,5140.4,-1974.1,93750,3707.2,16608.7,3814.5
4140.5,9429.1,5134.6,-1974.5,93750,3705.7,16609.7,3816.5
4137.4,9424.3,5131.5,-1977,93750,3705.8,16611,3818.9
4140.5,9424.7,5133.3,-1977.5,93750,3704.9,16607.6,3817.3
4145.9,9431.8,5139.3,-1974.7,93750,3705.1,16596.5,3809.8
4145.1,9434.2,5145.7,-1971.6,93750,3706.9,16590.8,3809.3
4145.2,9434.9,5148.3,-1970.4,93750,3709.4,16590.7,3812.7
4146.2,9435.3,5147.5,-1971.3,93750,3712.2,16592.7,3817
4141.5,9431.1,5142.8,-1973.9,93750,3712.9,16612.9,3838.6
4133.3,9428.1,5135.2,-1979.7,93750,3707.8,16648,3865.5
4128.1,9430.3,5135.6,-1981.6,93750,3701.6,16660,3859.7
4129.6,9428.6,5142.1,-1982.6,93750,3704.3,16657.2,3847.5
4138,9424.8,5147.2,-1983.5,93750,3711.2,16650.4,3840.2
4146.8,9425.9,5145.5,-1983.1,93750,3714.5,16644.7,3836.8
4155,9431.9,5143.6,-1980.2,93750,3718.7,16640,3834.7
4159.1,9431,5145.9,-1979.7,93750,3718.9,16637.3,3831.7
4165,9431.1,5153.6,-1986.3,93750,3717.5,16614,3807.6
4167.1,9434,5150.2,-1980.7,93750,3721.5,16590.7,3797.8
4155.7,9424.1,5155.9,-1978.7,93750,3715,16589.6,3804.6
4140.4,9416.3,5167.1,-1981.5,93750,3707.6,16593.8,3810
4147.1,9423.3,5146.4,-1977.9,93750,3712.2,16593.6,3814.5
4149.6,9426.8,5146.5,-1977,93750,3712.8,16593.4,3817.3
4154.1,9430.3,5148,-1976.5,93750,3714.6,16590.6,3818.2
4158.8,9430.3,5145.6,-1976,93750,3712.1,16595.1,3823.3
4152.3,9423,5140.3,-1978.5,93750,3708.5,16619.3,3836.2
4149.2,9422.1,5137,-1979.1,93750,3708.3,16629.7,3837.6
4144.6,9422.6,5137,-1978.6,93750,3707.9,16629.3,3833.5
4137.5,9420.8,5142.3,-1980.3,93750,3708.7,16625.9,3828.6
4138.8,9424.5,5146.4,-1981.9,93750,3707.5,16615.8,3818.8
4142.7,9427.8,5144.3,-1980.6,93750,3707.9,16607.3,3814.9
4149.5,9428.7,5144.2,-1980.4,93750,3711.3,16602,3815.5
4152.1,9431,5149.4,-1979.3,93750,3713.9,16597.8,3815.5
4149.4,9431.9,5154.3,-1976,93750,3714.8,16591.8,3811
4149.4,9427.6,5152.9,-1977.4,93750,3715.6,16591.3,3815.1
4152.8,9424.6,5150.2,-1980.7,93750,3713.7,16595.7,3819.8
4149.9,9423.3,5145.7,-1982.8,93750,3708.6,16599.2,3819.8
4141.5,9426.7,5147.2,-1981.3,93750,3706.9,16592.3,3812.2
4137.3,9426.1,5144.2,-1978,93750,3709.6,16588,3810.8
4142.1,9424.3,5142.6,-1977.4,93750,3710.4,16587.6,3813.4
4153.3,9424.1,5142,-1977.8,93750,3709.6,16589.5,3816.7
4157.3,9425,5138.3,-1977.5,93750,3712.9,16608.3,3837.4
4155.8,9422.3,5136.9,-1983.3,93750,3711.1,16643.3,3863.5
4154.7,9422.7,5143.6,-1985,93750,3707.2,16657.5,3858.6
4149.8,9422.4,5150.3,-1982.9,93750,3703.2,16659.1,3846.4
4144.9,9421.3,5151.9,-1981,93750,3702,16658.8,3837.2
4142.3,9423.1,5150.7,-1978.3,93750,3704.9,16654.6,3830.4
4138.2,9425.8,5157.9,-1975.1,93750,3702.1,16650.4,3825
4144,9433.4,5146,-1972.3,93750,3704.7,16644.8,3818.7
4161,9437.5,5147.4,-1975,93750,3711.8,16615.5,3794.6
4167.1,9441,5157.2,-1970.4,93750,3716.2,16588.8,3785.6
4166,9439.4,5154.1,-1968.5,93750,3713.2,16585.8,3794.2
4162.7,9437,5149.5,-1969.1,93750,3712.3,16587.1,3801.2
4163,9434.1,5143.3,-1968.4,93750,3710.9,16588.2,3805.7
4158.3,9428,5143,-1970.5,93750,3705.7,16591.8,3809.5
4150.2,9427.6,5142.1,-1971.2,93750,3704.7,16594.1,3812
4139.1,9431.1,5142.1,-1969.2,93750,3707.2,16598.4,3817.3
4129.9,9425.7,5141.7,-1968.9,93750,3707,16617.8,3829.9
4139.4,9426.9,5139.2,-1969.1,93750,3707.1,16625.7,3831.6
4149.5,9428,5140.5,-1970.9,93750,3707.5,16624.9,3828.3
4151.4,9428.9,5143.9,-1973.6,93750,3706.5,16624.2,3824.6
4153.5,9432.9,5147.9,-1973.4,93750,3706.2,16616.4,3815.9
4151.3,9427.4,5142.2,-1973.9,93750,3702.2,16613.1,3813.8
4152.6,9421.9,5138.2,-1975.5,93750,3702.7,16611.8,3815.2
4151.5,9422.3,5138.5,-1975,93750,3703.5,16609.4,3815.4
4150.4,9423.5,5137.6,-1972.6,93750,3704.7,16603.6,3810.7
4151.1,9425.4,5142.6,-1972.3,93750,3709.5,16601.4,3815
4148.1,9427,5150.8,-1973.7,93750,3711.3,16603.5,3820.1
4143.5,9427.6,5157.6,-1974.6,93750,3711.8,16603.9,3821
4140.7,9431.2,5161,-1973.9,93750,3711.6,16596.2,3814.6
4130.9,9429.4,5156.9,-1973.5,93750,3711,16593.3,3813.7
4128.5,9425.9,5147,-1974.6,93750,3709.6,16594.7,3816.6
4132.1,9419.8,5147.4,-1976.9,93750,3705.8,16597.9,3819.8
4129.1,9418.2,5144.1,-1976.7,93750,3707.8,16619,3841.5
4140,9424.5,5115.9,-1977.3,93750,3713.6,16652,3869.3
4148.1,9427.5,5122.5,-1977.1,93750,3713.7,16664.2,3866.7
4150.8,9428.6,5131.5,-1975.4,93750,3714.2,16666.2,3856.6
4154.6,9430.3,5129.4,-1973.1,93750,3714.8,16666.7,3849.1
4148.7,9427.5,5137,-1973.5,93750,3711.6,16667.9,3843.7
4143.9,9423.6,5141.7,-1974.9,93750,3708.8,16669.3,3839.2
4141.1,9422.8,5137.1,-1976.1,93750,3706.7,16667.2,3832.4
4146.5,9429.1,5140.5,-1979.5,93750,3708.7,16640.5,3806.9
4150.6,9432.7,5147,-1974.1,93750,3713,16614.8,3797.2
4148.7,9433.4,5148.6,-1969.5,93750,3714.4,16609.7,3804.7
4150,9436.9,5151.6,-1966.6,93750,3714.8,16609.1,3811.6
4150.7,9436.3,5152.7,-1966.2,93750,3716,16609.8,3817.1
4149.4,9431,5152.4,-1970,93750,3716.5,16612,3821.2
4144.3,9427.6,5147.4,-1972.9,93750,3713.7,16616.1,3824.1
4139.5,9423.1,5139.7,-1974.7,93750,3707,16625.6,3828.6
4136.3,9413.8,5129,-1977.7,93750,3702.1,16648.7,3839.3
4137.7,9414.5,5129.1,-1979.8,93750,3700.8,16659.5,3840
4140.7,9418.4,5137.1,-1980.6,93750,3702,16659.9,3835.7
4136.7,9427.4,5148.2,-1977.8,93750,3709.6,16655.1,3830.9
4132.4,9437.3,5158.1,-1972.4,93750,3715.9,16642.6,3822.2
4133,9435.2,5156.7,-1970.4,93750,3716.5,16636.7,3820.1
4138.2,9428.3,5152.1,-1971.1,93750,3713.1,16636.5,3822.4
4141.5,9423.3,5144.3,-1973.9,93750,3707.3,16639.3,3822.8
4138,9420.7,5140.5,-1974.6,93750,3705.9,16635.7,3816.3
4132.5,9417.9,5150.1,-1975.6,93750,3707.2,16633.5,3819.2
4128.8,9420.7,5161.6,-1978,93750,3703.7,16634.5,3821.8
4141.4,9432.9,5142.3,-1974.4,93750,3711.9,16631.1,3822.2
4157.5,9432.3,5143.8,-1974,93750,3717.5,16619.5,3817
4156.1,9429.1,5150.3,-1976.2,93750,3718.2,16616.2,3817.8
4152.1,9431.5,5143.9,-1975.4,93750,3717.5,16618.1,3822
4149.9,9428,5141.3,-1976.3,93750,3711.3,16623.5,3825.5
4143.7,9418.5,5139.4,-1979,93750,3706.3,16645.9,3845.3
4136.3,9410.5,5140.9,-1986.1,93750,3702.3,16680.3,3869.7
4133.2,9417.5,5145.2,-1985.4,93750,3703.2,16689,3863.9
4138,9428.7,5144.7,-1979.2,93750,3708.1,16685.5,3853.6
4146.1,9434.8,5148.7,-1974.9,93750,3713.6,16679.8,3845.9
4151.9,9432.7,5153.6,-1972.9,93750,3716.7,16676.3,3842.2
4155.8,9433.2,5150.1,-1970.2,93750,3714.7,16676.4,3840.2
4155.8,9430.8,5140.5,-1969.7,93750,3710.8,16676.2,3835.3
4160.9,9427.8,5139.7,-1976.5,93750,3709.5,16653.6,3810.6
4160.3,9429,5142,-1974.5,93750,3711.9,16630.9,3800.4
4153.2,9431,5144.3,-1970.9,93750,3710,16625.9,3805.5
4151.1,9431.4,5148.4,-1970.2,93750,3711.2,16622.7,3810.7
4158.4,9431.2,5152.2,-1968.7,93750,3711.8,16621,3815.3
4161.5,9431.3,5156.7,-1966.7,93750,3712.7,16621.9,3819.4
4161,9431.9,5158.9,-1966.6,93750,3712.3,16622.9,3821.5
4157.9,9427.7,5156.9,-1969.5,93750,3710.3,16628.5,3825
4149.7,9419,5145.6,-1974.3,93750,3703.9,16652.2,3836.3
4144.4,9411.9,5155.9,-1981.7,93750,3697.5,16663.2,3835.7
4139,9412,5166.4,-1986.2,93750,3694.5,16663.7,3830.3
4151.2,9423.9,5142.4,-1980.4,93750,3703.5,16657,3825.5
4156.8,9431.9,5147.4,-1974.3,93750,3708.4,16641.9,3816.2
4166.7,9433.1,5156.4,-1971.3,93750,3709.1,16631.4,3813.3
4164.3,9433.7,5160.5,-1970.1,93750,3711.4,16628.3,3816.2
4161.4,9434.4,5156.6,-1969.6,93750,3709.7,16629.3,3818.7
4156.5,9434.2,5148.3,-1968.7,93750,3707.6,16627.7,3814.9
4150,9428,5143.8,-1970.6,93750,3707.2,16629.1,3819.6
4146.1,9423.6,5144,-1973.9,93750,3704.3,16632.4,3823.5
4150.7,9425,5144.6,-1974.5,93750,3703.8,16630.2,3822.7
4154.4,9430.8,5146,-1972.6,93750,3706.8,16618.9,3815.9
4150.5,9433.6,5152.5,-1968.7,93750,3712.5,16612,3815.7
4152.8,9432.1,5154.2,-1967.6,93750,3713.1,16611.9,3819.8
4156.9,9428.2,5157.8,-1971.1,93750,3711.3,16616.2,3824.4
4151.8,9422.6,5155,-1974.9,93750,3710.3,16638.9,3845.4
4144.7,9419.9,5149.5,-1981.4,93750,3705.7,16675,3870.6
4144.1,9419.1,5150.6,-1984.3,93750,3703.4,16687.2,3864.8
4149.2,9422.2,5150.3,-1982.5,93750,3702.1,16685.7,3852.2
4155.1,9426.6,5148.4,-1980.2,93750,3703,16682.1,3843.4
4159.6,9427.2,5153.8,-1980.3,93750,3708.1,16677.5,3838.7
4165.8,9432,5161.8,-1979.7,93750,3710.5,16673.1,3835.8
4166.7,9434.9,5163,-1980,93750,3710.8,16668.9,3830.5
4169.9,9440,5163.2,-1982.4,93750,3714.3,16643.5,3807.3
4169.8,9440.7,5166.6,-1978,93750,3716,16619.3,3797.9
4166.8,9434.7,5163.2,-1976.6,93750,3711,16615.1,3803.5
4163.4,9431.6,5158.1,-1976.1,93750,3706.9,16613.9,3808.5
4159.7,9428.7,5167.2,-1974.3,93750,3707,16611.6,3812.5
4150.7,9426.2,5183.5,-1974.5,93750,3704.3,16612,3815.8
4155.3,9434,5172.8,-1972.5,93750,3708.7,16610.6,3818.9
4161.2,9434.4,5163.9,-1970.8,93750,3713.1,16613.5,3825.7
4154.5,9426.3,5162.5,-1973.5,93750,3707.5,16636.8,3838.6
4157.1,9429.5,5150.2,-1975,93750,3706.4,16646.6,3839.1
4163,9429.1,5135.3,-1976.5,93750,3708.1,16645.5,3835.7
4161.2,9425.3,5139.8,-1977.7,93750,3706.2,16643.4,3832.2
4161,9426.7,5147.6,-1976.5,93750,3704.6,16633.2,3823.3
4157.1,9430,5149.5,-1974.2,93750,3707.9,16625.5,3821.5
4154.5,9431,5155.2,-1972.7,93750,3712.3,16619.6,3823.7
4149.4,9430.9,5160.5,-1970.7,93750,3717.2,16614.7,3825.1
4149.9,9426.8,5164,-1969.4,93750,3719.4,16607.5,3822.2
4155.2,9426.3,5163.6,-1970.4,93750,3715.2,16608,3826.9
4163.8,9423.7,5157.6,-1975.1,93750,3707.2,16615.4,3830.8
4166.8,9425.1,5151.5,-1978.2,93750,3700.2,16620.4,3829.5
4168.2,9427,5151.6,-1978.7,93750,3696.6,16615.4,3820.8
4165.6,9425,5151.3,-1978.8,93750,3701.3,16610.8,3817.9
4165.7,9425.6,5148.7,-1978.2,93750,3702.8,16609.8,3820
4167.5,9428.6,5154.4,-1977.3,93750,3704.5,16610.3,3823.5
4166,9429.5,5159.5,-1976.4,93750,3707.4,16627.6,3844.1
4161.8,9425.7,5158.5,-1981.9,93750,3708.3,16659.8,3869.9
4160.3,9427.1,5159.4,-1984.6,93750,3708,16671,3865.3
4156.4,9429.2,5163.3,-1983.4,93750,3706.7,16671.1,3854.4
4158.7,9427.9,5164.4,-1982.6,93750,3702.2,16669.5,3845.4
4163.4,9425.4,5159.9,-1980.8,93750,3700,16666.9,3839.1
4165,9426.6,5164.1,-1978.4,93750,3702,16662.4,3834.8
4162.7,9424.8,5180.3,-1979.3,93750,3699.8,16656.3,3827.8
4176.9,9434.7,5172.8,-1982.7,93750,3707.3,16627.9,3803.7
4192.2,9440.6,5167.6,-1976.8,93750,3714.6,16601.7,3795.6
4185.5,9436.4,5174,-1975.4,93750,3710.2,16599.5,3802.9
4185.6,9431,5173.8,-1976.4,93750,3707.9,16599.4,3808.4
4183.7,9427.7,5166.7,-1975.7,93750,3706.7,16599.3,3812.4
4177,9424.2,5157.6,-1976.7,93750,3703.6,16602.1,3816.5
4173,9423.5,5156.9,-1977,93750,3706,16601.3,3818.9
4172.1,9423.3,5157.6,-1977,93750,3705.8,16604.5,3824.2
4167,9417.3,5156.8,-1978.3,93750,3700.3,16627.6,3837.1
4166,9419,5160.9,-1978.3,93750,3700.4,16638.6,3838.5
4164.5,9424.3,5162.9,-1976.8,93750,3703.8,16640.1,3835.3
4170,9424.1,5162.8,-1976.4,93750,3703.1,16640.4,3831.2
4176.9,9422.6,5162.4,-1977.4,93750,3703,16633.6,3822.2
4176,9418.9,5160.2,-1978.5,93750,3701.2,16628.4,3818.2
4170.5,9418.6,5157.6,-1977.4,93750,3699.8,16626.3,3818.7
4163.7,9424,5154.5,-1974.4,93750,3699.2,16625.4,3819
4164.2,9425,5156.6,-1971.7,93750,3700.6,16618.6,3813.5
4166.2,9425.3,5160.3,-1970.1,93750,3704.8,16614.7,3817.4
4170.9,9429,5156.6,-1970.3,93750,3710,16614.1,3822.6
4177.8,9431.5,5149.1,-1971,93750,3713.1,16611.3,3824.6
4180.8,9427.2,5158.2,-1974.1,93750,3708.9,16604.3,3819.3
4177.3,9419.8,5162.7,-1978.1,93750,3703.3,16603.9,3818.9
4170,9416.4,5161.4,-1981.1,93750,3698,16607.9,3821.2
4165.8,9417.9,5157.3,-1980.8,93750,3699,16610.8,3824.7
4158.1,9416.4,5158.3,-1981.3,93750,3702.1,16629.7,3845.9
4148.6,9412.8,5172.8,-1987.3,93750,3698.1,16663,3871.1
4161.1,9424,5161.3,-1985.9,93750,3702,16674,3866
4183.3,9430.3,5139.3,-1980.5,93750,3713.8,16671,3856.7
4176,9425.4,5155,-1980.6,93750,3712.6,16670.6,3850.1
4166.3,9426.2,5163.4,-1980.1,93750,3709.8,16670.6,3844.7
4161.5,9424.8,5159.5,-1979.5,93750,3707.7,16670.7,3840.8
4159.2,9422.4,5157.1,-1980.7,93750,3708.6,16667.1,3835.1
4173,9424.5,5159.4,-1986.5,93750,3705.6,16642.9,3810.2
4181.6,9428.4,5163.6,-1981.4,93750,3708.8,16618.8,3799.2
4178.5,9428.2,5165.5,-1975.7,93750,3714.5,16613.5,3805.8
4175.9,9429.9,5168.7,-1974.1,93750,3718.4,16613.5,3813.4
4174.7,9431.3,5169,-1972.6,93750,3718,16615.8,3819.3
4170.1,9429.6,5168.2,-1973.3,93750,3711.4,16621.8,3823.2
4168.3,9423.1,5168.6,-1976.9,93750,3706.7,16625.7,3824.1
4165.4,9419,5164.5,-1979.8,93750,3703.4,16631.5,3826.6
4160,9413,5152.9,-1981.8,93750,3697.3,16653.5,3836.1
4162,9416.1,5150.6,-1981.4,93750,3697.3,16660.2,3834.3
4170.1,9421,5153.3,-1979.7,93750,3699.2,16656.8,3829.5
4177.5,9426.1,5159.8,-1978.2,93750,3703.1,16651.1,3824.8
4184.2,9430.5,5164.7,-1977.1,93750,3709.7,16640.4,3817.5
4185.3,9429.6,5161.2,-1976.6,93750,3709.9,16637.3,3817.1
4180.7,9425.7,5161.3,-1976.9,93750,3707.4,16638.7,3819.3
4173.8,9420.3,5157.4,-1978.9,93750,3704.9,16639.7,3819
4168.4,9418.3,5155,-1979.3,93750,3700,16637.4,3813.6
4168.1,9418.7,5157.8,-1977.4,93750,3700.4,16636.8,3816.7
4166.5,9420.9,5158.8,-1976.1,93750,3702.4,16638.3,3821.4
4169.2,9422.7,5162.5,-1975.9,93750,3705.3,16636.1,3821.6
4175.3,9426.9,5167.8,-1974.4,93750,3709.5,16626.6,3815.9
4173,9428.2,5166.3,-1971.6,93750,3711.1,16623.6,3815.9
4167.6,9428.1,5161.3,-1971.7,93750,3708.2,16626.7,3818.6
4163.8,9424.5,5158.8,-1973.1,93750,3708,16630.7,3822.7
4157.5,9414.7,5164.2,-1977.8,93750,3702.5,16652.2,3842.5
4148.4,9409.5,5166.8,-1986,93750,3696,16686.6,3866.1
4158.2,9420.6,5145.2,-1983.8,93750,3704.6,16692.4,3860.1
4166.5,9426.5,5148.1,-1978.3,93750,3708.8,16686.1,3849
4170,9430,5163.6,-1974.5,93750,3711.2,16680.4,3841.1
4174.9,9431.7,5165.8,-1972.3,93750,3713.6,16676.6,3836.6
4179.1,9432.8,5159.2,-1969.5,93750,3717.2,16672.3,3834.2
4174.7,9426,5164.1,-1972.4,93750,3710.5,16670.1,3829.4
4175,9429.4,5169.5,-1978.7,93750,3706.3,16647.1,3804.4
4174.7,9429.7,5170.5,-1974.7,93750,3707.8,16623.3,3794.7
4171.9,9429.1,5163.5,-1971.7,93750,3706.2,16618.9,3802.3
4177.7,9426,5165.2,-1973.6,93750,3707.2,16617.7,3809.6
4184.3,9428.6,5167.1,-1972.2,93750,3710.3,16616.2,3814.9
4184.8,9432.4,5165.8,-1972.1,93750,3711.7,16616.7,3819.1
4181.8,9431.6,5168.5,-1972.6,93750,3712.4,16618.7,3822.8
4178.2,9423.1,5172.2,-1975.6,93750,3709.6,16627.2,3828.1
4169.2,9413.1,5164.7,-1979.9,93750,3701.8,16652.7,3839.7
4162.9,9409.7,5159.5,-1981.3,93750,3696.8,16665.7,3839.9
4159.9,9413,5158.2,-1981.8,93750,3696.7,16667.6,3835.7
4161.7,9418.7,5158.6,-1980.6,93750,3701.1,16665,3832
4169.8,9423.8,5162.4,-1978.2,93750,3706.9,16653.6,3823.6
4174.6,9427.8,5165.5,-1974.9,93750,3711.9,16646.1,3821.7
4171.2,9430.9,5166.6,-1972,93750,3716,16643.3,3824.2
4169.4,9428.8,5164,-1972.2,93750,3713.6,16643.9,3825.1
4172.7,9423.8,5158.6,-1971.6,93750,3707.6,16643.6,3819.6
4170.1,9420.2,5155.7,-1971.5,93750,3705.7,16644.8,3821.9
4164.8,9413.8,5155.1,-1976.6,93750,3704,16648.1,3824.2
4161.8,9411.7,5164.8,-1980.4,93750,3703.1,16646.3,3822.7
4159.3,9419.3,5182.4,-1979.3,93750,3704.5,16633.6,3814.8
4169.5,9430.9,5163.5,-1972.6,93750,3712.4,16625.2,3814.6
4180.5,9430.4,5155,-1969.6,93750,3714.6,16623.4,3819.1
4180.6,9427.2,5163.7,-1971.2,93750,3710.5,16626.2,3822.4
4173.5,9422.7,5161.1,-1974.1,93750,3708.1,16646.5,3842.1
4163.9,9418.9,5159.9,-1979.6,93750,3703.1,16681.2,3867.3
4160.7,9418.4,5163.5,-1982.9,93750,3698.8,16694.4,3861.9
4156.8,9422.2,5166.2,-1980.1,93750,3703,16692,3849.9
4157.6,9426.1,5168.3,-1974.7,93750,3706.7,16685.9,3841.2
4164,9428.8,5167.2,-1969.9,93750,3709.5,16679.3,3836.2
4171.6,9430.9,5171.7,-1966.6,93750,3713.1,16673.1,3833.5
4175.8,9434.9,5166,-1964.7,93750,3714.1,16667.1,3828.3
4183.5,9438.1,5163.4,-1968.1,93750,3715.5,16641.5,3804.9
4182.7,9434.3,5169,-1965.9,93750,3721.3,16615.7,3796
4173.7,9426.5,5165.5,-1965.7,93750,3719.5,16610.7,3804.3
4167.8,9422,5165.9,-1966.4,93750,3715.2,16609.5,3811.2
4167,9424.8,5158.4,-1963.8,93750,3717.7,16605.4,3815.8
4171.4,9426.5,5156,-1961.3,93750,3716.3,16602.4,3820
4177.6,9429.1,5165.2,-1962.1,93750,3708.3,16602.5,3821.4
4184.8,9429.4,5170.4,-1964.7,93750,3703.9,16608.9,3824.8
4183.8,9422,5167.2,-1968.9,93750,3696.7,16633.9,3836.3
4178.8,9421.8,5162.3,-1970.9,93750,3695.2,16645.8,3836.7
4170.8,9419.8,5159.9,-1972.3,93750,3697.8,16647.3,3833.2
4167.7,9418.2,5162.4,-1973.7,93750,3699,16645.5,3829
4172.1,9418.5,5169.9,-1974,93750,3697.9,16637.1,3820.8
4173,9416.2,5180.1,-1974.2,93750,3695,16632.9,3817.9
4164.6,9414.9,5192.5,-1975.4,93750,3698.6,16630.3,3819
4170.8,9422.4,5170.9,-1971.3,93750,3709.5,16626.4,3821
4180.1,9422.9,5161.7,-1966.4,93750,3714.3,16619,3818.2
4178.5,9422,5168,-1967.1,93750,3712,16618.9,3822.8
4177.6,9419.2,5165.9,-1972.2,93750,3705.9,16626,3827.9
4178.7,9412.7,5162.9,-1978.2,93750,3702.3,16630.3,3827.7
4179.8,9412.8,5163,-1979.7,93750,3700.1,16624.1,3820.5
4175,9411.9,5166,-1979.6,93750,3700.1,16621.8,3818.4
4171.3,9412.1,5169.4,-1978.6,93750,3703.2,16622.4,3821.3
4167.4,9416.3,5171.4,-1975.8,93750,3709.1,16623.8,3825.9
4165.6,9418.9,5165.6,-1973.9,93750,3713.4,16643,3848.5
4165.4,9418.4,5155.3,-1978.9,93750,3712.6,16677.9,3875.8
4166.7,9420.5,5159.8,-1980.9,93750,3708.4,16691.5,3871.5
4169.2,9420.3,5164.4,-1979.6,93750,3704.2,16693.5,3859.4
4173.5,9415.2,5162.5,-1980.6,93750,3701.6,16694.4,3850.4
4172.6,9412.4,5164,-1982.1,93750,3701.4,16692,3843.8
4169.1,9418.4,5167.4,-1978.1,93750,3704.9,16687.2,3839.6
4168.3,9420.8,5170.7,-1976.6,93750,3703,16683.3,3834.7
4177.1,9427.8,5181.6,-1980.6,93750,3705.7,16656.7,3809.3
4179.4,9434.1,5186.6,-1973.8,93750,3713.3,16630.2,3798.6
4176.9,9434.2,5179,-1968.3,93750,3714.4,16623.9,3805.2
4179.8,9429.6,5169,-1967,93750,3716.2,16621.1,3812.5
4181.4,9426.7,5153.3,-1965.7,93750,3714.9,16621.6,3819.2
4172.3,9423.8,5153.9,-1966.1,93750,3707.9,16625.6,3823.7
4162.9,9422.4,5161.7,-1967.9,93750,3704.3,16627.2,3825.1
4164.3,9421.5,5160.6,-1967.9,93750,3705.9,16629.1,3828.1
4165.8,9416.3,5153.6,-1968.6,93750,3704.3,16646.2,3838.6
4172,9421.6,5151.4,-1968,93750,3707.2,16651.2,3838.9
4175.9,9423,5159.6,-1968.9,93750,3707,16648.6,3834.6
4174.2,9421.3,5168.9,-1970.9,93750,3706,16646,3829.7
4172.7,9423.4,5175,-1971.5,93750,3707.5,16636.8,3820.9
4169.8,9419.7,5171.6,-1971.3,93750,3706.3,16631.9,3817.8
4169,9415,5169,-1972.2,93750,3703.5,16629.5,3817.5
4165,9409.5,5188.3,-1974.6,93750,3698,16628.6,3815.6
4162.2,9414,5184.2,-1972.5,93750,3701.5,16622.1,3808.8
4172.2,9426,5162.3,-1965.6,93750,3711.1,16617.5,3813.5
4170.9,9425.7,5170,-1965.6,93750,3711,16618.9,3819.2
4171.5,9423.5,5170.9,-1966.4,93750,3710.6,16618.9,3820
4176.1,9422.8,5171.5,-1966.6,93750,3710.4,16610,3813.8
4176.9,9418.3,5170.9,-1968.2,93750,3709,16606,3812.8
4175.3,9416.7,5163.1,-1969.9,93750,3704.8,16608.7,3816.3
4171.9,9416.2,5156.6,-1970.8,93750,3702,16612.9,3820
4170.3,9412.8,5155.8,-1970.1,93750,3702.2,16632.2,3840.2
4169.4,9408.7,5158.7,-1975.6,93750,3701.6,16664.6,3865.4
4174,9416.5,5168,-1975.4,93750,3705,16673.3,3860.5
4173.9,9422.1,5173.2,-1971.7,93750,3709.6,16671.6,3850.9
4169.4,9423.9,5170.3,-1969.2,93750,3712.5,16670.7,3844.7
4168.5,9423.1,5167.6,-1968.4,93750,3711.9,16670.3,3840.7
4166.9,9419.1,5164.2,-1968.8,93750,3710.1,16670.7,3838.2
4167.5,9415.5,5161,-1971.5,93750,3708.3,16669,3833.4
4172.7,9419.6,5162.4,-1977.2,93750,3709.8,16644.6,3808.9
4172.1,9424.4,5166.6,-1970.4,93750,3719.2,16619,3800.6
4177.1,9423,5167.6,-1966.3,93750,3718.7,16615.8,3809.7
4182.2,9422.9,5167,-1965.3,93750,3718,16619,3817.9
4181.3,9418.8,5168.7,-1966.2,93750,3720,16623.1,3824.7
4173,9418.9,5167.4,-1967.4,93750,3722.5,16626.8,3830.3
4163.5,9417.1,5161.8,-1970.3,93750,3721.9,16631.1,3834.4
4158.5,9408.2,5156.1,-1976.1,93750,3717.6,16641.1,3839.7
4151.7,9395.3,5151.5,-1979.7,93750,3712,16665.7,3851.7
4148.9,9394.3,5164,-1982.1,93750,3710.1,16675.7,3851.6
4146.8,9400.3,5173,-1982.1,93750,3712.3,16675.2,3846.3
4163.4,9415,5149,-1974.5,93750,3722.7,16670.5,3842.3
4174.1,9419.6,5152.1,-1970.9,93750,3726.8,16659.8,3834.6
4172.5,9416,5158.1,-1972.1,93750,3725.4,16655.2,3832.8
4172.1,9414,5155.8,-1973.1,93750,3722.2,16656,3834.8
4166.8,9409.1,5147.5,-1974.4,93750,3716.4,16657.9,3834.3
4163.1,9409,5144.9,-1973.2,93750,3714.9,16652.5,3826.3
4161.3,9412.9,5139.3,-1969.8,93750,3716.6,16649.6,3828
4162.2,9412.7,5146.8,-1970.4,93750,3714.5,16649.2,3830.8
4164.5,9413.8,5162,-1972.3,93750,3714,16646.2,3829.6
4166.7,9418.2,5175.2,-1971.7,93750,3716.2,16635.6,3822.3
4166,9421,5178,-1970,93750,3715.9,16631.6,3821
4160.8,9420,5174.6,-1971.1,93750,3714.5,16633.9,3823.3
4156.2,9415.8,5169.1,-1971.2,93750,3713.7,16638.7,3826.7
4155.4,9407.3,5160,-1972.5,93750,3711.1,16660.9,3846.8
4157.5,9399.8,5153.2,-1979.8,93750,3706.3,16695.3,3871.1
4163.2,9405.7,5156.8,-1981.7,93750,3705.5,16705.7,3864.9
4169.6,9415,5160.1,-1979.4,93750,3707.7,16704.3,3853
4171.7,9422.6,5165.4,-1976.1,93750,3715.5,16699.7,3845.1
4173.6,9422.9,5172.3,-1975.5,93750,3718.6,16696.1,3840.7
4168.7,9424.2,5173.6,-1974.2,93750,3719.9,16694.2,3838.2
4166.9,9423.1,5168.2,-1974.2,93750,3715.9,16690.3,3832.1
4175.5,9422.8,5165.9,-1979.2,93750,3713,16665.4,3807.7
4178.4,9424.9,5162.5,-1976.8,93750,3712.6,16642.1,3797.5
4177,9426.7,5158,-1973,93750,3711.9,16636.7,3803.2
4178.8,9425.2,5161.8,-1969.9,93750,3712.5,16633.8,3808.7
4176.2,9425,5169.7,-1966.2,93750,3714.7,16631.3,3813.6
4173.7,9428.2,5174.1,-1963.5,93750,3719.5,16629.4,3818.3
4170.5,9429.5,5173.6,-1962.3,93750,3722.2,16628.9,3822.8
4165.9,9429,5169.1,-1963.7,93750,3716.8,16636.4,3828.7
4153.6,9420.1,5162.1,-1967.8,93750,3706.6,16661.5,3840.4
4145.2,9409.3,5172.7,-1973.7,93750,3699.2,16673.8,3839.6
4150.1,9413.5,5163.3,-1974.7,93750,3698.7,16673.5,3834.2
4164.5,9418.7,5156.4,-1971.8,93750,3702.4,16669.1,3829.9
4170.2,9421.5,5168.7,-1971.3,93750,3705.3,16658.1,3821.1
4175,9428.3,5169,-1968.4,93750,3709.8,16649.9,3818.8
4176.7,9431.5,5167.6,-1965.1,93750,3712.8,16646,3819.8
4174.8,9426.9,5165.5,-1962.4,93750,3714,16644.2,3820.3
4170,9421.9,5162.2,-1959.9,93750,3709.8,16642.8,3815.8
4165.2,9417.3,5162.5,-1960.7,93750,3708.1,16643.7,3818.7
4162.6,9413.1,5159.2,-1965.5,93750,3703.8,16647.1,3821.5
4163.7,9418.8,5152.3,-1965.9,93750,3707.1,16645.3,3820.8
4167.6,9425.8,5154,-1962.4,93750,3712.3,16632.1,3814.3
4165.7,9426.6,5164.1,-1961.4,93750,3714,16625.1,3814.8
4165.7,9426.8,5174.7,-1962.4,93750,3713.7,16624.8,3818.3
4167,9425.7,5175.2,-1963.8,93750,3715.8,16627.8,3823.4
4164.7,9419.1,5169.2,-1966.9,93750,3714.5,16650.4,3845.4
4153.9,9414.6,5163.7,-1973.4,93750,3709.2,16686.6,3871.5
4150.3,9415.6,5162.5,-1975.8,93750,3706.8,16698.5,3865.3
4154,9416.2,5159.6,-1974.2,93750,3708.1,16697.6,3853.8
4162.8,9420.3,5151,-1969.7,93750,3714.6,16692.7,3846.1
4167.2,9424.3,5155.5,-1967.4,93750,3715.8,16689.4,3842.9
4171.1,9425,5167.3,-1966.9,93750,3716.7,16688.1,3840.9
4173.8,9425,5167.9,-1967.2,93750,3715.9,16685.6,3836.2
4179.6,9427.8,5168.3,-1971.8,93750,3715.2,16663.2,3812.4
4181.4,9428.2,5173.7,-1968.3,93750,3717.4,16641.6,3802.3
4169.8,9421.1,5178.5,-1967.4,93750,3712.3,16640.7,3808.5
4152.4,9415.7,5191.7,-1968.4,93750,3706.2,16642.7,3812.9
4155.8,9419.8,5175.7,-1964.6,93750,3714.4,16639.6,3816.2
4167.8,9419.3,5157.9,-1963,93750,3721.2,16637.4,3821.4
4173,9416.8,5163.8,-1964.1,93750,3723.5,16635.4,3824.5
4176.2,9412.8,5167.1,-1965,93750,3724.6,16638.7,3830.3
4166.7,9408.2,5165.5,-1966.2,93750,3720.3,16660.5,3843.3
4159.8,9410.7,5160.2,-1966.3,93750,3717.6,16671.6,3845.5
4154.3,9418.4,5153.8,-1965,93750,3712.1,16675.1,3841.9
4153.9,9420,5150.7,-1966,93750,3707.4,16675.9,3836.4
4158,9421.2,5153.9,-1965.7,93750,3708.1,16666.5,3825.9
4162.5,9422.3,5155.9,-1963.7,93750,3707.5,16659.8,3821.9
4168,9421.7,5161.2,-1963.6,93750,3707.4,16657.1,3821.9
4169.5,9421.2,5168,-1963.6,93750,3709.5,16655.4,3822.1
4170.6,9421.3,5172.2,-1963.1,93750,3710.8,16650.7,3817.2
4168.3,9419.9,5172.4,-1964.2,93750,3714.5,16650.6,3821.9
4165,9416.5,5169.7,-1967.3,93750,3713.8,16654.6,3826.2
4160.8,9416.2,5164.5,-1968.6,93750,3712.3,16655,3825.8
4159.2,9420,5163.7,-1967.5,93750,3710.6,16644.8,3817.6
4157.1,9420.4,5163.2,-1967.1,93750,3709.8,16639.1,3815.4
4153.1,9421.8,5161.8,-1964.3,93750,3713.1,16638.5,3819.3
4156.5,9423.5,5165.2,-1961.8,93750,3716.5,16639.7,3824.6
4157.6,9423,5166,-1960.6,93750,3719.5,16657.4,3846.2
4157.5,9416.8,5165.3,-1967.4,93750,3717.1,16690.1,3872.7
4158.1,9416.7,5167.2,-1970.9,93750,3714.8,16702.1,3868.2
4157.9,9417,5168.3,-1970.1,93750,3716.4,16699.8,3856.2
4158,9418.2,5164.4,-1969.5,93750,3719,16696.1,3848.9
4156.5,9419.3,5162.3,-1968.3,93750,3719.5,16691.8,3844.7
4155.2,9419.3,5166,-1967,93750,3717.7,16687.7,3841.1
4154.3,9423,5168.4,-1966.4,93750,3718.9,16682.8,3836.3
4156.8,9431,5177,-1969.1,93750,3724.4,16655.4,3812.6
4161.9,9432.7,5183.6,-1964.5,93750,3729.8,16629.7,3803.8
4163.4,9430.4,5178.3,-1961.4,93750,3727.7,16626.4,3811.4
4161,9427.5,5173.3,-1960.9,93750,3726,16628.6,3818.4
4157.4,9423.3,5171.8,-1960.9,93750,3724.8,16631.1,3824.2
4155.4,9419,5167.3,-1963.2,93750,3721.3,16634.6,3827.8
4157.1,9416.8,5162.2,-1966,93750,3719.5,16635.6,3828.8
4159,9417.9,5160.6,-1968.4,93750,3719.9,16638.4,3831.9
4153.3,9415.4,5162,-1970.5,93750,3717.6,16657.2,3842.2
4142.6,9420,5171.5,-1969.3,93750,3720.6,16662.5,3842
4141.8,9425.9,5172.1,-1967,93750,3726,16659.2,3839.2
4156.9,9426.3,5154.2,-1965.1,93750,3727,16657.2,3837.2
4158.3,9423.8,5163.8,-1964.6,93750,3721.4,16650.9,3829.1
4156.2,9418.3,5164.9,-1965.4,93750,3717.5,16647.5,3826.6
4156.2,9416.7,5160.3,-1966,93750,3715.5,16648.1,3828
4157.4,9418.6,5156,-1964.8,93750,3713.8,16648.2,3828.1
4158.7,9418.1,5157.4,-1962.7,93750,3714,16644.3,3822.8
4150,9421,5164.3,-1960.1,93750,3720.2,16642,3826.5
4149.8,9422.8,5167.7,-1960.5,93750,3720.6,16644.1,3830.5
4154.9,9421.1,5168.9,-1962.2,93750,3720.5,16645.8,3830.8
4161.3,9418.4,5170.7,-1963.3,93750,3719.6,16638.9,3824.9
4160.6,9413.2,5165.3,-1965.2,93750,3718.9,16638.7,3824.6
4159.6,9409.8,5158,-1967.4,93750,3714.7,16643.4,3826.9
4157.9,9408.4,5155.2,-1968.8,93750,3713.3,16647.2,3828.7
4154.3,9406.5,5156.1,-1969.8,93750,3719.4,16663.3,3848.1
4150.5,9408,5155.1,-1972.6,93750,3721,16693.4,3874.9
4153.6,9414.8,5159.9,-1970.8,93750,3720.9,16704.6,3872
4158.1,9418.1,5168,-1968.2,93750,3723.4,16703.3,3862
4160.2,9418,5172.5,-1965.9,93750,3721.9,16702.7,3854.7
4158.4,9416.2,5171.8,-1964.5,93750,3720.4,16701.9,3849.4
4150.3,9415.9,5168.3,-1965,93750,3720.9,16701.4,3846
4146.6,9414,5164.4,-1967.2,93750,3721,16697.9,3840.5
4153.7,9417.2,5165.3,-1972.4,93750,3721.5,16672.1,3816.4
4162.8,9421.7,5168.6,-1968.4,93750,3725.5,16646.8,3807.2
4164.9,9423.2,5165.5,-1965.7,93750,3728.7,16641,3815
4162.7,9427.2,5164.9,-1963.6,93750,3732.7,16639.1,3822.7
4159.1,9424.1,5171.6,-1963,93750,3736.2,16638.1,3829.3
4147,9415.3,5187.3,-1966,93750,3731,16642.7,3834.7
4142.5,9412.3,5178.7,-1969.4,93750,3727.7,16648.1,3837.5
4150.3,9411,5154.4,-1971.5,93750,3727.7,16655.8,3842.8
4142.4,9399.7,5155.1,-1977.2,93750,3718.5,16680.6,3854.5
4142.4,9401.3,5158.7,-1978.7,93750,3717.8,16689.4,3854.2
4147,9406.3,5159.4,-1977.6,93750,3721,16686.8,3849.1
4153.7,9413.7,5157.6,-1975.2,93750,3728.7,16679.8,3844.7
4164,9420.8,5162.9,-1971.5,93750,3731.5,16668.2,3837.1
4166.1,9415.3,5164.1,-1973.3,93750,3728.8,16665.5,3836.3
4165.2,9411.6,5163,-1976,93750,3727.3,16666.8,3838.4
4155,9409.1,5157.1,-1975.9,93750,3722.1,16669.2,3839
4146.2,9409.8,5154.7,-1974.2,93750,3720.8,16665.2,3833.1
4148,9411.4,5155,-1973.3,93750,3720.5,16664.4,3836.5
4152.2,9414.7,5150.4,-1973.7,93750,3722.8,16666.1,3840.5
4158.4,9418.7,5149.6,-1971.1,93750,3728.5,16663.5,3841.7
4166.4,9417.1,5161.6,-1969.8,93750,3728.5,16655.7,3837
4165.2,9416.6,5162.6,-1970.7,93750,3726.2,16655.6,3837.4
4160.7,9417.2,5159.8,-1972.5,93750,3723.8,16660.3,3839.5
4156.6,9412.4,5159.9,-1973.6,93750,3723.5,16663.8,3841.7
4149.8,9405.4,5157.1,-1977.2,93750,3719.4,16684.7,3861.4
4144.9,9402.5,5155.6,-1986,93750,3712.7,16720.6,3886.2
4148.7,9409,5160,-1986.5,93750,3713.2,16731.7,3880.4
4154.9,9415.3,5160.6,-1982.5,93750,3717.1,16729.2,3869.1
4160.9,9421.9,5163.2,-1978.2,93750,3725.1,16723.4,3861.4
4162.8,9421.9,5171,-1974.9,93750,3729,16719,3857.2
4162,9420.9,5172.6,-1972.5,93750,3728.7,16716.5,3854
4158.4,9419.8,5170.2,-1972.5,93750,3723.9,16714.7,3848.8
4161.8,9419.6,5173.6,-1979,93750,3718,16691.5,3822.9
4165,9421.1,5176.9,-1976.8,93750,3718,16665.9,3809.4
4162.8,9421,5170.2,-1973.1,93750,3719.6,16658.5,3814.7
4168.8,9423.2,5167.1,-1969.5,93750,3720.5,16654.3,3820.2
4169.8,9428,5171.5,-1965.1,93750,3724.6,16651.2,3825.1
4163.3,9424.2,5187.7,-1966,93750,3725.8,16650.7,3830.1
4157.5,9423.5,5193.4,-1966.9,93750,3726.1,16650.5,3832.4
4164,9427,5161,-1965.3,93750,3729.4,16655.2,3838.1
4160.6,9414.5,5150.3,-1968.9,93750,3718.6,16680.1,3850.8
4157.3,9408.1,5152.5,-1972.6,93750,3710.3,16693.2,3851.5
4161.9,9406.6,5152,-1975.9,93750,3707.4,16694.2,3847.1
4167.9,9410.2,5157,-1976.5,93750,3710.5,16690.7,3843.2
4174.2,9415.4,5169.2,-1975.5,93750,3715.3,16679.4,3835.1
4174.1,9418.6,5176.2,-1973.2,93750,3718.9,16671.6,3833
4168.4,9423.3,5178.2,-1970.8,93750,3723.2,16668.1,3835
4164.4,9422.8,5174.3,-1970.8,93750,3722.9,16666.8,3836.1
4162.1,9421.5,5166.3,-1969.8,93750,3722,16661.6,3830.7
4155.5,9420.1,5162.4,-1968.8,93750,3721.9,16660.3,3834.1
4150.2,9417,5161.6,-1971.8,93750,3718.6,16662.7,3837.3
4154,9414.1,5164.2,-1974.5,93750,3717.1,16660.5,3836.1
4162.8,9417.6,5169.9,-1973.3,93750,3721.5,16647.4,3829.1
4162.2,9424.4,5173.2,-1970.3,93750,3725.3,16640.2,3828.9
4158.1,9427.9,5177.8,-1968.8,93750,3728.8,16637.8,3832.6
4160.7,9426.5,5174.5,-1969.6,93750,3730.6,16639.1,3838.3
4160.4,9419.7,5168.8,-1973.3,93750,3725.9,16661.5,3860.3
4156.8,9411.6,5161.8,-1982,93750,3719.4,16698.6,3885.9
4158.3,9412.5,5157.3,-1984.7,93750,3717.4,16712.5,3881.2
4165.3,9418.1,5147.3,-1981.3,93750,3719.3,16712.7,3870.3
4172.4,9422.1,5140.9,-1976.8,93750,3722.1,16709.6,3863.2
4173.3,9418.1,5154.9,-1976.9,93750,3722.8,16707.3,3858.3
4171.5,9421.8,5165.9,-1973.2,93750,3728.3,16703.4,3855.2
4169.6,9425.2,5169.6,-1970.3,93750,3727.4,16700.4,3850.2
4171.9,9423.5,5189.4,-1977.2,93750,3721.4,16678.4,3824.5
4168.7,9426.4,5196.4,-1975.2,93750,3722.7,16655.4,3811.8
4178.9,9425.2,5161.2,-1970.9,93750,3725,16651,3818.5
4179.1,9419.5,5159.7,-1970.2,93750,3722,16649.6,3823.9
4173.9,9418.2,5166,-1969.6,93750,3722,16646.5,3827.2
4170.5,9421.4,5169.7,-1968.9,93750,3723.8,16643.4,3829.9
4172.9,9425.8,5174.4,-1967.7,93750,3724.8,16640,3831.8
4176.6,9424.2,5174.7,-1967.8,93750,3724.8,16642.9,3836.6
4171.6,9417.6,5167.2,-1969.8,93750,3722.5,16664.6,3849.6
4166.8,9414.8,5163,-1971.8,93750,3721,16676.7,3851.6
4162.1,9412.6,5161.8,-1973,93750,3718.6,16680,3848.5
4161.8,9411.5,5160.5,-1973.9,93750,3717.2,16678.6,3843
4165.7,9413.7,5161.5,-1973.7,93750,3719,16668.2,3833.8
4167,9414.3,5166,-1971.6,93750,3718.8,16660.8,3830.5
4166.2,9416.8,5171.4,-1969.6,93750,3720.8,16656.1,3830.3
4167.1,9422,5172.7,-1967.7,93750,3724.1,16651.6,3830.1
4167.5,9425.1,5171.9,-1964,93750,3724.9,16644.7,3825.3
4166.8,9424,5170.5,-1962.3,93750,3725.5,16643.4,3829.5
4167.5,9419.9,5166.8,-1965,93750,3722.7,16646.9,3833.8
4169.7,9414.7,5166.1,-1968.6,93750,3717.6,16648.1,3832.9
4167.5,9417.1,5166.3,-1968.3,93750,3715.4,16640.4,3825.3
4161.1,9419.8,5165.4,-1964.5,93750,3715.9,16636.6,3824.4
4161.7,9418.4,5164.2,-1963.9,93750,3717.3,16637.4,3827.3
4166.5,9423.4,5162.1,-1962,93750,3721.8,16637.7,3831.2
4165.1,9423.9,5157,-1960.3,93750,3724.4,16656.6,3853.3
4165.5,9421.2,5155.6,-1965.4,93750,3721.7,16692.2,3880
4171.1,9421.5,5156.2,-1968.6,93750,3717.8,16706.9,3875.3
4168.4,9419.1,5160.7,-1969,93750,3717.5,16708.1,3863.1
4161.5,9417.4,5166.5,-1969.6,93750,3715.7,16706.9,3853.8
4159.7,9419.6,5168.4,-1969.7,93750,3713,16703.1,3846.5
4165.2,9419.6,5172.1,-1969.7,93750,3714.9,16698.1,3841.7
4167.5,9424.9,5172.8,-1968.8,93750,3715.2,16692.4,3835.7
4173.6,9436.3,5177,-1970,93750,3718.1,16664.6,3810.7
4181.3,9435.2,5185.3,-1967.4,93750,3727.9,16636.7,3801.4
4177.1,9428.3,5191.9,-1967.5,93750,3727.1,16631.5,3809.9
4166.7,9424.2,5200.7,-1968.8,93750,3721.8,16633,3817.3
4168.9,9424.5,5179.8,-1967.3,93750,3721.2,16635.4,3823.1
4174.1,9421.6,5160,-1966.4,93750,3720.6,16637.3,3828.3
4169.4,9418.9,5166.6,-1967.3,93750,3716.7,16637.5,3829.9
4169.7,9418.3,5169.3,-1967.8,93750,3713.8,16642,3833
4164.9,9418.8,5159.4,-1968.1,93750,3712.1,16661.6,3844.1
4165.4,9424.8,5151.8,-1966.4,93750,3718.8,16667.5,3846.2
4168.2,9426.2,5160.1,-1967.8,93750,3718.3,16667.2,3844.3
4167.9,9425.5,5164,-1969.2,93750,3717.9,16666.1,3840.7
4167.2,9426.9,5167,-1967.8,93750,3719.8,16655.8,3832.1
4159.3,9422,5172,-1968.5,93750,3716.3,16650,3829.5
4159.4,9416.6,5176.1,-1971.9,93750,3711.6,16648.8,3830.1
4154.8,9421.6,5177,-1971.5,93750,3710.6,16646.2,3828.7
4151.8,9424.3,5176.5,-1968.9,93750,3711.1,16639.2,3822.2
4156.5,9427.2,5180.1,-1966.8,93750,3718.9,16632.5,3824.2
4162.1,9429.4,5176.8,-1963.8,93750,3721.2,16631.4,3828.8
4168.4,9428.8,5168.6,-1964.3,93750,3719.9,16632.9,3830.8
4174.6,9428.8,5166.4,-1966.6,93750,3721,16625.1,3825.2
4173.7,9423.8,5163.6,-1968,93750,3715,16624,3824
4171.5,9417.8,5161.2,-1971.1,93750,3711.3,16627.8,3826.1
4171.3,9415.3,5161.6,-1972,93750,3710.1,16631.3,3828.8
4166.9,9411.7,5161.1,-1972,93750,3713.2,16649.6,3849.2
4165.9,9406.7,5163.1,-1977.4,93750,3714.6,16681.4,3875.2
4168.1,9411.4,5171.3,-1978.1,93750,3721.1,16688.5,3870.2
4167.8,9418.2,5172.9,-1974.6,93750,3730,16681.6,3859.9
4162.8,9423.1,5171.2,-1970.8,93750,3732.1,16678.2,3854.8
4158.2,9424.1,5171.3,-1968.4,93750,3726.7,16678.3,3851.7
4151.4,9418.3,5180.7,-1970.6,93750,3715.4,16681.1,3847.4
4142.8,9419.6,5186.1,-1972.1,93750,3709,16680,3839.2
4161.4,9432.4,5161.8,-1971.5,93750,3713.6,16653.3,3813.5
4174,9436.6,5159.7,-1965.9,93750,3719.1,16626,3803.2
4173.8,9435,5167.9,-1962.9,93750,3723.5,16617.7,3809.8
4174.6,9432.8,5172.1,-1961.4,93750,3725.8,16615,3817.4
4172.5,9433.1,5173,-1958.9,93750,3725.1,16615.5,3823.4
4168.4,9431.7,5172.4,-1959.7,93750,3719.4,16619.6,3827
4161.5,9434.7,5165.8,-1959.5,93750,3711.3,16624.9,3828.3
4154.2,9437.7,5150.4,-1958.3,93750,3705.2,16634.5,3830.8
4143.9,9429.3,5149.4,-1960.3,93750,3700.5,16657.5,3840.3
4140.6,9428.1,5160.3,-1961.4,93750,3699.3,16666.8,3840
4146.1,9433.3,5159.9,-1959.8,93750,3701.6,16666.4,3835.5
4153.1,9439,5161.6,-1957.7,93750,3707.4,16661.8,3830.5
4160,9445,5165.6,-1955.2,93750,3711.8,16650.7,3822.2
4159.6,9445,5164.5,-1954,93750,3710.1,16647.4,3821.1
4153.7,9442,5161.8,-1955,93750,3709.5,16649,3822.9
4148.6,9437.1,5157,-1957.2,93750,3708.5,16649.3,3822.8
4143.8,9436.3,5152.2,-1955.8,93750,3704.4,16646.4,3817.7
4141.8,9439.1,5153.5,-1954.9,93750,3701.8,16648.1,3821.6
4139.4,9442,5158.4,-1956.6,93750,3704,16650.4,3825.5
4137.4,9447.3,5163,-1954.9,93750,3709.8,16646.2,3824.6
4145,9450.8,5167.1,-1952.4,93750,3715.4,16634.1,3818.2
4152.7,9451.8,5160.4,-1953.9,93750,3714.6,16631,3818.1
4151.9,9450.9,5151.8,-1956.1,93750,3712.2,16634.8,3821.4
4146.4,9446.8,5151.9,-1957.7,93750,3709.6,16640.3,3824.4
4135.9,9440.9,5151.1,-1960.1,93750,3707.4,16662,3844.3
4130.1,9437.8,5150.8,-1967,93750,3701.6,16697.2,3869.1
4132.2,9445.6,5155,-1966.7,93750,3700.9,16708.4,3863.3
4136.7,9447.5,5158.4,-1963.5,93750,3706.7,16707.2,3852.9
4142.4,9449.7,5164.4,-1960.8,93750,3713.4,16704.5,3846.6
4144.1,9450.5,5167,-1959.8,93750,3715.9,16702.7,3843.1
4144.2,9451.5,5166.5,-1959.1,93750,3716.7,16703.1,3841.3
4143.8,9449,5162.1,-1960.2,93750,3712.1,16704.6,3837.1
4146,9450.9,5158.7,-1965.6,93750,3709.8,16684.9,3813.4
4148,9449.5,5159.3,-1963.3,93750,3713.3,16662.8,3803.1
4144,9443.6,5156.6,-1961.9,93750,3714.8,16658.5,3810
4143.4,9445.5,5157.1,-1959.5,93750,3716.9,16657.2,3817.1
4146.4,9446,5169,-1957.3,93750,3718,16656.8,3822
4147.3,9442.6,5184.7,-1958.6,93750,3715.6,16659.5,3825.3
4149.7,9450.3,5164.1,-1957.2,93750,3721.3,16660.3,3827.4
4153,9449.4,5146.1,-1957.3,93750,3720.9,16666.6,3833.2
4136.3,9436.2,5149.1,-1962.4,93750,3710.3,16693.3,3845.4
4130.1,9432.5,5148.3,-1965,93750,3706,16706.8,3845.1
4132.4,9434.5,5146.8,-1965.2,93750,3702.8,16709.6,3840.4
4138.5,9440.2,5143.9,-1964.2,93750,3702.8,16708.2,3834.5
4149.8,9443.2,5145.5,-1962.6,93750,3710.5,16696.5,3824.8
4154.7,9447,5151.8,-1960.1,93750,3716,16687.5,3822.1
4156.1,9449.9,5157.1,-1958.3,93750,3716.3,16684.3,3823.4
4154,9446.1,5158.9,-1959.5,93750,3712.6,16685,3822.9
4150.8,9445,5160,-1958,93750,3708.8,16682.2,3815.8
4143.8,9446.1,5146.8,-1955.9,93750,3710.8,16682.2,3818.6
4140.8,9441.3,5143,-1957.4,93750,3707.9,16685.5,3822.3
4138.8,9437,5157.9,-1961.2,93750,3704,16685.8,3821.4
4140.1,9444.4,5167.6,-1959.8,93750,3708.3,16674.2,3814.2
4142.4,9448.6,5168.5,-1958,93750,3710.6,16668,3812.9
4145.2,9449.8,5169.7,-1957.4,93750,3713.5,16665.6,3815.5
4145.5,9449.8,5168.5,-1955.8,93750,3716.2,16668,3821.1
4141.3,9445.5,5158.4,-1956.8,93750,3715.2,16690.5,3844
4133.8,9441,5146.4,-1961.6,93750,3713.1,16725.2,3870.2
4133,9439.9,5149.2,-1963.8,93750,3708.5,16737.1,3865.2
4133.6,9439.1,5156.8,-1963.5,93750,3704.6,16737.5,3853.4
4136.5,9442.1,5164.8,-1961.5,93750,3706,16734.2,3844
4136.7,9447,5170.8,-1958,93750,3709.5,16729.5,3838.6
4139.9,9448.1,5177.1,-1955.9,93750,3716.2,16724.7,3835.8
4145,9449.7,5175.8,-1957.6,93750,3718.6,16720,3831.7
4146.4,9457.3,5177.1,-1960.9,93750,3721.3,16695.6,3809.2
4145,9452.8,5190.1,-1959.3,93750,3721.3,16674.1,3801
4146.9,9448.3,5164.8,-1959,93750,3722.3,16672,3809.6
4153.7,9445.5,5141.9,-1958.9,93750,3721.4,16672.9,3818.1
4149.2,9443.2,5152.1,-1959.8,93750,3719,16674.7,3823.7
4147,9443.5,5159.3,-1961.2,93750,3718.2,16677.9,3827.8
4150,9446.2,5164.2,-1961.7,93750,3719.5,16678.1,3829.5
4151.4,9447.1,5164.5,-1961.4,93750,3720.8,16683.7,3834.1
4140.2,9441.6,5159.7,-1962,93750,3719.7,16707.7,3846.9
4135.4,9439.1,5156.7,-1964.3,93750,3719.6,16718.4,3848.1
4137.3,9437.1,5151.2,-1967.1,93750,3719.9,16720.5,3845.2
4139.2,9434,5144.6,-1969.1,93750,3718.2,16720.1,3840.5
4139.8,9439.3,5145,-1966.4,93750,3722.2,16709,3831.7
4140.9,9438.6,5148.3,-1966.2,93750,3724.5,16701.8,3830.6
4139.8,9439.4,5155.3,-1967,93750,3725.1,16699.4,3833.3
4138.2,9445,5160.2,-1964.4,93750,3726.6,16695.7,3833.8
4140.1,9447.7,5162.2,-1961.3,93750,3727.1,16689.9,3829
4142.5,9447,5154.1,-1961.5,93750,3729.3,16689.3,3833
4140.6,9449.6,5144.8,-1961.5,93750,3726.6,16692.5,3837.1
4126.2,9445.2,5158.1,-1963.8,93750,3723.3,16693.4,3837.2
4124.6,9439.8,5168.3,-1966.8,93750,3722.2,16683.1,3829.6
4132.1,9440,5162.9,-1967.5,93750,3720.3,16677.2,3827.6
4137.5,9443.4,5155.2,-1966.7,93750,3720.2,16675.4,3829.9
4142.2,9446.1,5155.5,-1964.4,93750,3723,16674.6,3833.2
4142.9,9446.8,5150.9,-1962.4,93750,3726.4,16692,3854.8
4136.1,9450.6,5145.1,-1963.4,93750,3725.3,16723.8,3881
4136.2,9448.2,5150.9,-1964.6,93750,3722.1,16735.3,3877.1
4144.8,9445.8,5149.9,-1965.1,93750,3720.3,16735.3,3865.9
4145.5,9444.2,5149.5,-1965.5,93750,3716.6,16733.5,3857.3
4144.3,9443.2,5154.7,-1965.5,93750,3715.1,16730.7,3851.5
4144.4,9445.1,5156.3,-1963,93750,3717.1,16725.9,3847.7
4151.1,9446.6,5155.8,-1961.4,93750,3717.1,16719.4,3841.8
4161.6,9453.4,5160.5,-1964,93750,3718.8,16693,3817.5
4162.9,9459.3,5169.6,-1958.8,93750,3725.5,16668.3,3809.3
4150.3,9452.4,5184.1,-1958.7,93750,3721.4,16665.9,3817
4145.3,9451.3,5177.7,-1959.5,93750,3721.9,16666.8,3823.6
4155.2,9453.7,5147.8,-1956.6,93750,3725.2,16666.6,3830.1
4145.3,9451.7,5149.2,-1957.1,93750,3720.6,16668.6,3834.1
4137.8,9452.5,5151.1,-1957.3,93750,3719.4,16668.1,3834.7
4135.3,9452.4,5150.3,-1956.9,93750,3720.8,16669.4,3838.1
4128.9,9446.4,5149.1,-1958.9,93750,3721.9,16686.3,3850.1
4130.9,9445.9,5152.8,-1960.4,93750,3725.4,16691.9,3852.4
4135.8,9447.7,5158.1,-1959.4,93750,3727.1,16689.5,3850.1
4138.5,9446.6,5165.5,-1959.7,93750,3719.3,16690.7,3847.2
4140.3,9449.8,5176.5,-1962,93750,3712.4,16686.3,3837.3
4137.1,9451.6,5169.5,-1961.7,93750,3709.4,16684.2,3833.4
4139,9451.7,5157,-1960.4,93750,3709.7,16683.4,3833.4
4143.4,9447.3,5149.7,-1960.4,93750,3713.7,16680.2,3833.4
4148.3,9448.5,5148.3,-1958.6,93750,3715,16674.7,3828.4
4151,9450.8,5150.9,-1956.3,93750,3717.5,16673.5,3832
4150.8,9452.2,5155.4,-1956.1,93750,3720.4,16675.5,3836.1
4150.2,9451.3,5160.8,-1958,93750,3719.6,16675.6,3836.3
4149.6,9452.6,5166,-1959.3,93750,3716.8,16668.2,3829.1
4144.6,9453.2,5164.2,-1959.5,93750,3715.2,16665.6,3827.6
4139.3,9451.3,5156.9,-1959.6,93750,3711.3,16668.4,3829.6
4138,9451.9,5147.6,-1957.5,93750,3712.1,16670.1,3831.4
4141.9,9454.7,5136.9,-1955.1,93750,3718,16685,3851
4144.7,9448.5,5144.7,-1961.5,93750,3713.7,16716.1,3876.2
4149.2,9452.2,5158.8,-1962.9,93750,3711.6,16726.5,3870.3
4153.4,9456.6,5164.2,-1960.2,93750,3713.8,16727.2,3859.9
4155.6,9456.4,5160.7,-1959,93750,3715.7,16727.1,3852.9
4152,9459.9,5154.4,-1957.4,93750,3718,16725.5,3848.1
4146,9461.5,5149.3,-1955.7,93750,3718.7,16721.5,3843.3
4147.8,9457.2,5153.8,-1957.3,93750,3711.3,16718.1,3836.5
4154.8,9454,5176.3,-1965.8,93750,3704.1,16695.6,3810.5
4154.1,9456.9,5190.2,-1963.3,93750,3709.2,16670.7,3798.7
4160.8,9464.4,5169.2,-1955.2,93750,3719.1,16662.7,3806.1
4160.7,9464.5,5170.7,-1952.3,93750,3719.5,16662.7,3815.1
4162.2,9461.6,5175.5,-1951.2,93750,3716.7,16664.3,3819.9
4160.2,9457.5,5169.4,-1952.3,93750,3718.9,16667.5,3824.5
4157,9450.1,5164.2,-1957.3,93750,3717.6,16670.2,3827.9
4147.8,9449.2,5161.1,-1960.7,93750,3713.4,16676.4,3832.4
4144.6,9442.1,5156,-1965.7,93750,3704.1,16699.8,3844
4148.8,9444,5156.6,-1966.9,93750,3702.1,16709.5,3844.2
4152.9,9447.2,5160.2,-1966.1,93750,3704.3,16708.6,3840.2
4158.8,9451.5,5166.9,-1963.7,93750,3709.1,16703.5,3835.4
4162.1,9457.1,5170.3,-1959.6,93750,3715.2,16690.9,3827.3
4159.5,9456.6,5168.7,-1956.6,93750,3717.7,16683.4,3826
4157.2,9454,5166.1,-1957.4,93750,3718.5,16681.2,3827.9
4155.2,9448.2,5159.3,-1960.9,93750,3716.9,16680,3828.2
4154.3,9444.3,5155.2,-1960.7,93750,3712.7,16675.3,3822.9
4153.1,9443.5,5154.1,-1958.9,93750,3710.5,16676.3,3827.6
4151.8,9447.4,5156.8,-1959.7,93750,3712.1,16678.4,3832.2
4152.1,9454.1,5162.1,-1959.3,93750,3714.4,16677.2,3832.8
4156.2,9457.7,5170.3,-1958.6,93750,3719.2,16667.5,3827.1
4152.4,9455.9,5172.9,-1958.9,93750,3721.2,16664.3,3827.6
4147.6,9452.8,5171.1,-1960.1,93750,3719.1,16667.5,3831
4149.3,9447.8,5165.3,-1961.7,93750,3714.6,16672.4,3834.6
4148.5,9441.7,5155.8,-1964.3,93750,3711.4,16693.3,3853.6
4147.7,9435.1,5149.8,-1970.1,93750,3709.1,16725.7,3877.8
4152.1,9437.7,5154,-1971.5,93750,3712.6,16732.8,3872
4157,9444.9,5160.3,-1968.1,93750,3717.7,16727.7,3861.5
4160.4,9451.8,5165.1,-1963.2,93750,3719.9,16723.7,3855.6
4164.5,9455.5,5167.3,-1961.4,93750,3720.9,16720.4,3851.1
4165.9,9452.7,5168.5,-1962.3,93750,3720.3,16718.5,3847.6
4166.5,9448.5,5165.3,-1965.1,93750,3717.7,16716,3841.8
4169.3,9454.9,5157.9,-1968.1,93750,3717.4,16690.4,3816.8
4171.4,9458.3,5155.2,-1962.4,93750,3721.3,16663.1,3805.8
4166.4,9454.2,5155.9,-1959.4,93750,3719.1,16656.5,3812.2
4161.4,9452.7,5165.4,-1958.6,93750,3719.8,16653,3818.2
4156.9,9455.4,5177.7,-1955.9,93750,3723.3,16648.9,3823.1
4153,9457.9,5181.4,-1953.4,93750,3726.4,16647.5,3827.6
4156.5,9456,5179.9,-1954.9,93750,3725.7,16647.6,3830.5
4161.4,9450.9,5173.2,-1959.2,93750,3720.6,16653.2,3833.9
4157.6,9440.9,5160.1,-1963.1,93750,3713.1,16677.1,3845.2
4155.3,9435.9,5153.4,-1966.6,93750,3710.3,16687.7,3845.7
4154.8,9437.9,5154.5,-1968.2,93750,3710.1,16686.4,3841.7
4154.2,9444.7,5160,-1966.4,93750,3712.5,16680.7,3836.8
4151.9,9452.6,5169.6,-1962.4,93750,3719.3,16667.8,3828.8
4152.3,9453.8,5175.5,-1959.3,93750,3726,16658.5,3827.6
4156.6,9452.5,5172.3,-1957.8,93750,3730.9,16655.2,3831.4
4157.4,9448.5,5170.4,-1959.5,93750,3727.3,16656.5,3833.7
4151.1,9442.9,5176.8,-1960.8,93750,3718.7,16656.3,3828.2
4139.3,9438.1,5187,-1962.8,93750,3712.4,16659.5,3830.1
4144.8,9439.7,5162.1,-1964.8,93750,3713,16664.1,3832.8
4158.5,9444,5148,-1964.4,93750,3716.8,16662,3832.2
4161.4,9447.8,5158.9,-1962.9,93750,3719.2,16650.1,3825.9
4158.4,9450.7,5161.7,-1960.3,93750,3723.6,16644.4,3826.1
4158.6,9452.5,5160,-1958.4,93750,3727.5,16644.8,3831
4155.8,9452,5159.1,-1957.2,93750,3728.1,16648.4,3836.8
4149.7,9446.3,5153.8,-1958.5,93750,3726.2,16670,3857.7
4149.4,9437.9,5147.3,-1966.3,93750,3721.4,16705.8,3882.6
4155.5,9432.8,5146.3,-1971.9,93750,3716,16720.3,3877.1
4159.6,9434,5152.1,-1973.8,93750,3713.2,16721.3,3864.9
4160.4,9439.4,5158.8,-1972.1,93750,3716.7,16716.6,3854.9
4154.2,9443.5,5163.5,-1968.2,93750,3722.8,16710.5,3849.4
4152.2,9448.9,5171.2,-1963.5,93750,3727.5,16703.7,3845.8
4153.7,9451.3,5176.4,-1961.4,93750,3728.3,16697.2,3840.4
4161.4,9454.7,5178.2,-1964.6,93750,3727.5,16672.5,3816.1
4162.8,9453.4,5177.7,-1961.5,93750,3727.2,16649.4,3805.8
4158.3,9448.1,5171.3,-1961.9,93750,3720.8,16646.3,3811.4
4158.1,9448.3,5166.3,-1963.3,93750,3718.4,16645.3,3816.5
4160.1,9448.9,5161.8,-1962,93750,3719.2,16643.8,3821.1
4160.2,9448.9,5161.3,-1960.9,93750,3720.6,16644,3826
4160.5,9453.6,5159.5,-1958.9,93750,3724.7,16642.8,3829.2
4157.8,9456.9,5155.1,-1956.2,93750,3729.8,16644.3,3834.7
4149.4,9446.8,5155.4,-1957.5,93750,3723.1,16666.5,3848.1
4148.3,9440.8,5160.9,-1962.4,93750,3716.1,16679.2,3849.1
4148.6,9439.4,5162.6,-1965.6,93750,3712.7,16681.4,3844.1
4148.6,9439.3,5161.9,-1966.5,93750,3709.8,16680.4,3838.6
4151.4,9442,5163.5,-1965.3,93750,3710.8,16669.5,3826.9
4150.1,9442.2,5171.7,-1963.8,93750,3711.4,16661.2,3822.9
4143.2,9444,5184.3,-1962.8,93750,3711.7,16658.2,3824.1
4148,9454.5,5166.2,-1957.4,93750,3720.9,16652.2,3825.1
4154.3,9455.8,5159,-1952.2,93750,3721,16646,3821.2
4151.1,9453.2,5165.4,-1952.3,93750,3716.3,16646.8,3825.1
4149.4,9451,5161.6,-1954.5,93750,3711.9,16651.6,3828.8
4150.5,9447.1,5154.2,-1956.9,93750,3711.6,16652.8,3828.3
4152.3,9444.7,5149.8,-1957.9,93750,3713.7,16643.7,3822.6
4151.4,9441.1,5151.7,-1959.9,93750,3714.9,16639.1,3823.5
4155.1,9438.7,5155.8,-1962.1,93750,3713.4,16640.2,3827.9
4159.7,9439.7,5162.8,-1962.1,93750,3710.2,16644.6,3832.2
4158.3,9443.1,5163.8,-1960.9,93750,3709.4,16666.4,3852.3
4154.3,9443.8,5158.6,-1965.4,93750,3708.9,16702.5,3877.9
4155.5,9442.6,5159.1,-1968.5,93750,3710.3,16716.3,3872.7
4157.2,9440.5,5158.4,-1969.6,93750,3711.1,16718.6,3861.6
4153.2,9440.7,5155.2,-1969.8,93750,3711,16718.7,3853.4
4146.9,9438.8,5156.5,-1969.9,93750,3714.8,16714.9,3847.5
4145.3,9440.3,5162.1,-1966.9,93750,3722.1,16708.4,3843.8
4150.3,9440.8,5164.5,-1965.4,93750,3719.4,16703.7,3839
4163.2,9449.2,5169.9,-1968.1,93750,3716.4,16680.9,3815
4167,9456.1,5173.5,-1962.8,93750,3721.8,16657.5,3805
4163.4,9454.6,5170.1,-1959.6,93750,3721.4,16655.3,3812.8
4163.2,9449.7,5166,-1960.2,93750,3719.9,16656.9,3819.1
4159.5,9445.1,5161.8,-1959.9,93750,3717.5,16659.1,3824.3
4148.3,9440.6,5170.5,-1962.3,93750,3708.4,16665.9,3827.9
4139.6,9439.7,5180.6,-1964.8,93750,3705.1,16668.6,3827.4
4152.4,9443.1,5156.1,-1962.9,93750,3710,16672,3830
4157.6,9435.9,5151.3,-1963.4,93750,3707.1,16692.3,3840.9
4162.5,9434.9,5156.4,-1965,93750,3706.7,16701.9,3841.9
4169.5,9441,5155.5,-1965.2,93750,3707.1,16704,3839.2
4170.6,9442.5,5157.8,-1966.4,93750,3704.2,16704.1,3834.4
4172.1,9443.4,5163.7,-1966.9,93750,3703.6,16694.7,3823.1
4166.3,9440.2,5163.1,-1966,93750,3704.2,16688.6,3818.8
4156.5,9437.5,5160.6,-1964.4,93750,3705.4,16685,3819.2
4147.8,9444.3,5153.6,-1959.9,93750,3710.9,16679.1,3818.2
4141.9,9448.1,5153.9,-1953.4,93750,3714.4,16669.2,3814
4147.2,9442.1,5173.2,-1954.9,93750,3709.3,16668.2,3818.3
4155.7,9442.4,5178.8,-1958.3,93750,3705.5,16671.4,3821.4
4164.1,9445.2,5173.6,-1959.7,93750,3705.2,16671.6,3820.4
4169.8,9445.5,5170.2,-1960.6,93750,3705.9,16664.6,3813.4
4167.5,9443.3,5166.6,-1961.9,93750,3701.8,16664.3,3811.9
4159.1,9439.5,5165.4,-1963.4,93750,3699.1,16666.7,3813.6
4155,9438.3,5163.6,-1963.7,93750,3700.3,16668.4,3816.4
4155.1,9437.7,5161.6,-1962.6,93750,3702.4,16686.7,3837.5
4159.5,9434,5160.5,-1967.5,93750,3704.5,16719.4,3864.5
4163.4,9439.9,5162.4,-1966.9,93750,3706.8,16730.1,3861.3
4164.7,9444.5,5166.8,-1964.1,93750,3709,16730.9,3852.6
4165.2,9442.3,5170.7,-1964.2,93750,3707.7,16731.2,3845.9
4161.3,9440.4,5171.8,-1964.6,93750,3708.4,16730.1,3841.2
4155,9440.1,5170.7,-1965,93750,3707.4,16729.4,3837.9
4150.8,9440.3,5170.8,-1967.2,93750,3705.4,16724,3830.5
4155.4,9445,5177.3,-1971,93750,3705.1,16695.9,3804.8
4160,9447.7,5184.5,-1964.8,93750,3711.7,16669.8,3796.3
