EEG1,EEG2,EEG3,EEG4,EEG5,EEG6,EEG7,EEG8
0,0,0,0,0,0,0,0
-13299.3,-11595.4,-12039.2,-16398.5,2334.1,5241.6,4028.2,4170.9
-13302.9,-11600,-12038.2,-16401.5,2336.7,5242.4,4025.1,4171.1
-13306,-11606,-12042.2,-16405.2,2340.3,5243.1,4021.6,4170.7
-13305,-11607.2,-12045.1,-16406.8,2340.8,5240.9,4017.4,4169.9
-13303.6,-11600.7,-12044.2,-16404.2,2337.9,5238.6,4016.9,4170.4
-13301,-11593.7,-12040.7,-16400.1,2327.4,5233.2,4015.9,4166.7
-13297.3,-11589,-12039,-16398.5,2323.3,5231.8,4015.5,4163.9
-13298.4,-11591.4,-12039.8,-16400.1,2326,5232.7,4015.9,4164
-13301.2,-11590.2,-12039.2,-16399.7,2325.7,5230.8,4011,4160.5
-13304.2,-11580.4,-12036.4,-16399.7,2324.3,5224.1,4003.5,4153.1
-13307.1,-11581.7,-12037.3,-16399.5,2325.5,5223.6,4006.5,4158.8
-13307.7,-11586.9,-12039.8,-16398.2,2328.7,5227.8,4012.7,4162.7
-13307.3,-11592.1,-12040.8,-16399.2,2331.2,5231.6,4014.9,4163.5
-13308.6,-11592.1,-12041.5,-16397.9,2331.1,5232.4,4012.5,4163.8
-13313.1,-11589.6,-12044.8,-16397.1,2330.6,5232.8,4011.6,4166.4
-13311.3,-11588.5,-12043.9,-16396.8,2327.4,5234.3,4015.6,4170.3
-13309.4,-11587.9,-12044.4,-16397.8,2322.9,5237.4,4019.7,4172.7
-13309.9,-11588.4,-12046.7,-16402.9,2319.6,5238.3,4020,4170.9
-13311.8,-11592.7,-12045.6,-16402.9,2325.7,5238.6,4018.4,4170.3
-13313.3,-11593,-12048.5,-16402.3,2329.5,5241,4020.4,4172.7
-13312.1,-11592.8,-12044.5,-16402.8,2331.1,5242.4,4020.7,4172.6
-13309.2,-11591.7,-12037.6,-16402.7,2331.4,5241.3,4018.7,4169
-13307.6,-11589.2,-12038.3,-16399.7,2328.6,5241.6,4018.3,4169.3
-13311.1,-11588,-12044.3,-16397.2,2329.6,5244,4019.4,4172.3
-13312.5,-11588.9,-12047.5,-16395.6,2332.2,5246.5,4022.8,4178
-13314.5,-11589,-12050.3,-16392.5,2340.7,5254.7,4031.8,4190.2
-13313.2,-11590.4,-12042.3,-16394.4,2343.9,5256.1,4035.9,4188.6
-13310.4,-11587.3,-12036.1,-16396.1,2343.6,5253.1,4033.8,4181.7
-13308.3,-11584.4,-12034.1,-16396.9,2344.4,5251.1,4031.1,4179.2
-13306.4,-11584.8,-12034.8,-16396.5,2343.7,5250.6,4028.5,4181
-13304,-11582.3,-12033.5,-16396.4,2342.1,5249.1,4024,4178.3
-13304.3,-11582.2,-12031.5,-16398.6,2340.8,5247.4,4020.5,4177.1
-13306.2,-11583.9,-12033.6,-16397.3,2339.5,5248.3,4020.7,4178.7
-13309.6,-11589,-12038.6,-16398.6,2341.4,5252.9,4028.5,4184.4
-13310.2,-11587.5,-12037.2,-16398.1,2342.1,5253.3,4028.6,4181.7
-13310.5,-11583.8,-12035.3,-16395.4,2340.6,5248.8,4021.9,4176.1
-13311.4,-11583.8,-12035.9,-16395.8,2339.4,5245.6,4019.9,4175.5
-13309,-11586.7,-12035.5,-16396.9,2334.9,5238.8,4014.2,4166.5
-13309.1,-11587.4,-12033.6,-16398.3,2332.3,5233.9,4008.4,4161.2
-13314.5,-11591.1,-12033.8,-16401.3,2333.9,5235.4,4010.7,4164.9
-13316.5,-11591.3,-12035.3,-16401.8,2333.5,5235.4,4011.9,4163.7
-13312.3,-11582.2,-12032.4,-16400.1,2327.3,5227.2,4000.8,4152.4
-13312,-11587.7,-12031.4,-16404.4,2330.8,5226.5,4001.7,4155.3
-13311.8,-11594.9,-12032.2,-16407.8,2332.6,5231.5,4008.8,4162.2
-13313.2,-11597.9,-12034.2,-16409.2,2332.6,5234.9,4013.4,4165.1
-13313.4,-11597.4,-12035.8,-16408.4,2333.7,5238.2,4015.6,4166
-13313.8,-11598.3,-12035.2,-16409.1,2333.6,5239.9,4016.9,4167.8
-13315.4,-11600.2,-12035.3,-16410.1,2332.9,5240.9,4019,4169.8
-13314.7,-11598.8,-12035.9,-16411.3,2331.4,5240.5,4019.4,4170.4
-13311.4,-11602,-12035.9,-16415.3,2326.4,5238.9,4020.2,4168.2
-13310.5,-11603.3,-12037.2,-16413.6,2326.6,5238,4018.7,4166
-13312.2,-11602.1,-12037.7,-16411.9,2327.2,5240.2,4018.4,4168.4
-13315.1,-11601.5,-12038.2,-16412.1,2334.6,5243.7,4023.5,4167.8
-13315.2,-11599.6,-12036.4,-16412.7,2338.1,5244,4024.2,4166.2
-13314.3,-11597.1,-12035.5,-16414.7,2336.3,5244.6,4023.3,4167.6
-13318.2,-11596.9,-12034,-16411.8,2337.9,5244.8,4024.2,4168.1
-13316.9,-11598.3,-12036.6,-16408.3,2340.5,5247.8,4028.9,4173.7
-13317.6,-11601.9,-12040.5,-16405.5,2345.4,5257.1,4039.4,4189
-13314.7,-11599,-12037.2,-16403.1,2343.4,5258.5,4040.6,4185.9
-13310.9,-11592.3,-12034,-16402,2341.5,5256.5,4036,4178.4
-13307.6,-11589.9,-12031.4,-16401.4,2340.5,5254.5,4032.8,4176.6
-13304.8,-11589.7,-12030.8,-16398.5,2340.8,5255,4031.2,4176.5
-13306,-11587.7,-12032.2,-16395.2,2340.8,5254.1,4028.3,4175.5
-13306.6,-11589.4,-12030.5,-16397.4,2341.1,5252,4026.4,4174.2
-13307,-11590.7,-12031.1,-16399.5,2340.5,5251.5,4026.2,4174.9
-13309.7,-11592.4,-12034.9,-16400.4,2338.3,5255.2,4031.4,4181.3
-13311.1,-11590,-12030.6,-16400.2,2338.1,5256.1,4031.7,4179.7
-13308.5,-11589.9,-12027.2,-16400.6,2338.1,5253.5,4028.7,4176.1
-13304.2,-11592.3,-12028.9,-16399.9,2339.5,5250.6,4026.6,4172.9
-13304.9,-11591.4,-12033.9,-16397.7,2336,5243.6,4019.5,4166.2
-13306.4,-11591,-12034,-16398.9,2333.3,5240.7,4016.9,4166.7
-13304.8,-11590.8,-12030.5,-16400.4,2331.4,5239.9,4016.1,4166.7
-13301.8,-11586.3,-12028.9,-16401.4,2327,5237.2,4011.6,4162
-13300.9,-11581.8,-12028.8,-16401.7,2323.4,5230.5,4003.5,4150.7
-13304.8,-11588.8,-12028.1,-16401.9,2326.9,5228.2,4001.2,4154.8
-13307.7,-11595.3,-12027.6,-16401.9,2328.2,5231.6,4004.4,4163.2
-13310.9,-11597.1,-12028.2,-16401.8,2328.4,5235,4008.7,4166.1
-13310,-11595.9,-12028.6,-16401.4,2328.6,5236.8,4009.8,4166.1
-13309.7,-11596.3,-12029.6,-16401.5,2329.4,5238.7,4010.2,4166.7
-13310.8,-11597.4,-12033.9,-16402.6,2332.4,5239.1,4012.6,4166
-13312,-11596.4,-12036.5,-16404.9,2333.5,5239.7,4014.3,4165.7
-13315.2,-11597.1,-12037.2,-16409.5,2329.8,5237.3,4015,4163.6
-13315.9,-11595.5,-12035.4,-16408,2330.6,5235,4012.3,4159.9
-13318.4,-11595.1,-12038.8,-16406.8,2330.8,5235.8,4011.8,4161.9
-13318,-11596.3,-12039.6,-16406.8,2330.1,5237.2,4012.1,4165.6
-13317.8,-11594,-12034.6,-16405.7,2331,5237.6,4010.7,4165.7
-13320,-11594.3,-12032.8,-16406,2330.3,5239.9,4012.5,4170
-13318.5,-11592.7,-12033.5,-16405.8,2330,5241.2,4014.1,4170.9
-13316.6,-11592.3,-12035,-16405,2329.8,5240.2,4012.7,4171.2
-13316.7,-11593.1,-12038.9,-16403.4,2335,5247.2,4016.5,4180.8
-13317,-11591.4,-12038.9,-16403.6,2334.9,5249.2,4016.2,4181.1
-13314.2,-11590.3,-12037.8,-16403.6,2335.6,5245.9,4015.5,4174.4
-13310.4,-11588.1,-12035.4,-16403.2,2335.9,5243,4014.8,4168.7
-13309.9,-11589.1,-12032.2,-16404.8,2336.9,5244.7,4019.1,4171.6
-13310.5,-11589,-12031.6,-16402.4,2336.6,5244.8,4019.2,4170.3
-13310.6,-11591.3,-12031.1,-16402.1,2333.2,5243.3,4015.2,4168.9
-13309.9,-11593,-12031,-16404,2333.4,5241.8,4014.6,4168.6
-13308.9,-11594.4,-12035.1,-16407.1,2334.3,5244.9,4021.4,4174.4
-13310.1,-11590.7,-12037.1,-16404.6,2334.7,5245.8,4022.5,4173.6
-13310.9,-11590.1,-12036.9,-16402.7,2335,5243.5,4022,4170.3
-13311,-11589.9,-12035.6,-16400.8,2335.5,5241.3,4019.6,4167.1
-13312.6,-11592.8,-12035.1,-16400.8,2332.4,5235.5,4012.7,4158.4
-13313.3,-11596.6,-12036.5,-16404.3,2331.7,5233.9,4010.6,4157.3
-13311.2,-11597.4,-12036.2,-16406.1,2333.2,5234.8,4012.1,4160.6
-13312.1,-11599.4,-12034.3,-16408,2330.5,5234.6,4014,4161.5
-13310.6,-11595.1,-12032.3,-16408.9,2328.5,5229,4008.8,4151.3
-13310,-11596.4,-12032.6,-16410.5,2333,5227.9,4008.2,4151.3
-13311.4,-11596.2,-12033.5,-16408.7,2334,5231.4,4011,4157.7
-13311.1,-11597.4,-12035.8,-16406.9,2330.5,5234,4012.8,4162.2
-13311.3,-11596.4,-12035,-16404.5,2332.3,5237,4016.3,4164.6
-13313.2,-11598.4,-12035.7,-16404.8,2333.6,5239.6,4020.3,4166.5
-13315.8,-11599.2,-12038.6,-16404.6,2334,5240.6,4019.2,4166.3
-13323.2,-11601.4,-12044.5,-16406.1,2336.3,5240.4,4014.2,4162.9
-13325.3,-11609.1,-12051.1,-16411.8,2335.5,5238.2,4011.1,4160.7
-13327.1,-11614.7,-12053,-16413.4,2337.9,5237.2,4011.9,4162.9
-13325.1,-11608.8,-12048.3,-16410.7,2335,5237.4,4016.7,4167.9
-13317.3,-11599.6,-12039.8,-16405.4,2326.7,5238,4021.2,4171.7
-13311.8,-11593.5,-12033.4,-16402.3,2324.3,5240.8,4024.4,4174.6
-13312.4,-11590.3,-12033.6,-16401.1,2325.6,5244.2,4028.5,4175.2
-13311.3,-11589.4,-12036.1,-16399.4,2328.9,5242.8,4028.9,4170.2
-13310.5,-11587.9,-12036.4,-16397.6,2332.3,5244.2,4027.3,4169.5
-13315.6,-11584.7,-12035.6,-16395.2,2337.8,5250.4,4032.6,4178.4
-13314.7,-11577.4,-12031.1,-16395,2334.9,5249.5,4030.6,4177
-13314.7,-11573.2,-12028.5,-16394.9,2333.5,5246.2,4025,4171.1
-13312.5,-11570.1,-12025.9,-16393.8,2334.8,5243.9,4022.2,4168.5
-13308.9,-11568.2,-12022.5,-16392.8,2336.1,5245.4,4026.2,4171.5
-13309.1,-11565.7,-12022.4,-16390.5,2334.6,5247.1,4028.2,4172.5
-13309.4,-11564.5,-12024.1,-16390.7,2336.3,5246.5,4028.6,4170.8
-13307.2,-11563.2,-12024.9,-16393.1,2337,5244.3,4027.9,4168.3
-13308.1,-11566.3,-12026.4,-16392.2,2337,5246.7,4032.7,4173.6
-13309.3,-11562.8,-12026,-16386.8,2338.5,5246.6,4033.2,4171.9
-13307.7,-11557.2,-12024.4,-16382.5,2334.4,5243.3,4029,4168.5
-13309,-11557.3,-12020.9,-16380,2331.3,5241.8,4024.3,4168.7
-13311.7,-11560.1,-12019.4,-16379.4,2326.7,5235.1,4014.3,4160.7
-13311.7,-11564.5,-12021.6,-16382.4,2329,5234,4011.7,4157.3
-13310.1,-11570.5,-12022.4,-16387.2,2333.2,5235.5,4015.6,4158.2
-13307.9,-11572.9,-12020.3,-16388.9,2331.1,5234.4,4015.4,4157.7
-13307.3,-11564.3,-12019.2,-16385.8,2325.7,5227.4,4004.6,4146.7
-13309.4,-11564.8,-12022.8,-16386.1,2326.9,5227.8,4003.3,4150.9
-13309.9,-11569,-12023.4,-16387,2328.4,5231.6,4008.6,4157.8
-13312.8,-11571.9,-12024,-16388.2,2332.3,5236,4015.4,4161.7
-13312.6,-11573.5,-12024.4,-16388.7,2333.1,5238.6,4018.6,4163.1
-13312.5,-11571.3,-12025.5,-16388.8,2331.8,5239.6,4020.5,4165.5
-13312.5,-11568.8,-12028.8,-16388,2333.4,5241,4022.4,4167.8
-13310.9,-11566.5,-12029.9,-16390.5,2329.4,5240.4,4020.8,4165.7
-13310.3,-11566.5,-12028,-16394.1,2322.3,5237.2,4014.3,4161.6
-13312,-11573,-12026.5,-16395.4,2325.8,5235.4,4014,4162.1
-13312.9,-11574.2,-12026.1,-16396.2,2327.8,5236.2,4015,4163.1
-13311.9,-11573.6,-12025.5,-16400.1,2329,5236.5,4014.6,4163.8
-13309.2,-11572.1,-12022.7,-16396.1,2327.7,5236.8,4010.8,4162.4
-13311,-11574.6,-12025,-16393,2327.5,5238.8,4010.6,4165.5
-13313.4,-11576.6,-12028.9,-16393.9,2330.8,5239.9,4014.6,4168.1
-13312.6,-11574.9,-12031.4,-16392.1,2334.4,5241.2,4017.5,4167.8
-13313.1,-11575.5,-12035.3,-16391.6,2339.6,5249.4,4027.3,4180.3
-13310.7,-11571.2,-12032.3,-16390.3,2338.4,5249.8,4028.2,4177.1
-13312.9,-11567.1,-12031.7,-16389.1,2337.7,5246.2,4022.1,4170.5
-13311.9,-11564.2,-12031.3,-16387.4,2336.2,5243.9,4017.4,4167.1
-13307.1,-11563.6,-12030,-16385.3,2334.4,5245,4018,4170.2
-13305.9,-11564.1,-12030.9,-16385.8,2334.4,5245.2,4021,4167.9
-13304.4,-11562.6,-12031.5,-16384.7,2335.8,5243.5,4019.1,4163.2
-13304,-11564.7,-12033,-16385.1,2335.5,5242.2,4018.6,4162.6
-13305.5,-11570.1,-12037.4,-16388,2338.6,5246.7,4026.8,4169.8
-13306,-11568.1,-12035.2,-16388.6,2339.3,5248.8,4027.5,4169.6
-13305.9,-11566.3,-12030.3,-16389.6,2332.7,5245.3,4020.7,4166.9
-13304.3,-11566.1,-12028.2,-16388.7,2327.3,5243.1,4013.9,4166.4
-13302.2,-11567.3,-12029.2,-16388,2324.8,5236,4005.4,4157.8
-13302.1,-11569.8,-12029.6,-16389.3,2323.4,5232.3,4003,4151.9
-13303.6,-11571.4,-12030.6,-16392.3,2326.1,5233.5,4006.2,4152.2
-13306.3,-11570,-12033.3,-16396.2,2325.4,5234.5,4008,4153
-13305.4,-11563.1,-12032,-16396,2324,5229,4001.2,4145
-13308.4,-11569.4,-12033.6,-16395.8,2327.9,5229,4003.3,4150.5
-13312.2,-11573.9,-12036.6,-16394.3,2329,5232.5,4007.1,4154
-13311.6,-11578.2,-12034.5,-16395.9,2330.2,5237.2,4013.7,4160.1
-13309.8,-11580,-12032.1,-16397.4,2331.9,5242.4,4021,4164.1
-13308.3,-11577.1,-12030,-16397.1,2331.4,5244.2,4021.6,4162.7
-13306.2,-11575.3,-12030,-16397.6,2330.2,5243.5,4020.2,4162.2
-13305.5,-11574.9,-12033.2,-16398.9,2327.9,5244.1,4020.9,4162.4
-13305,-11574,-12035.9,-16401.1,2325.2,5242.7,4021.2,4159.9
-13307,-11576.5,-12037.7,-16399.7,2329.8,5243.2,4022.9,4158.7
-13308.3,-11576.1,-12038,-16396.9,2329.6,5243.7,4021.3,4158.9
-13305.9,-11574.1,-12035.1,-16393.2,2326.5,5241.5,4016.3,4157.3
-13304,-11572,-12030.8,-16389.5,2329,5239.8,4011.9,4155.2
-13302.7,-11573.6,-12029.8,-16390.1,2330.2,5240.6,4013.2,4157.3
-13303.6,-11574.2,-12031.4,-16390.5,2328.4,5240.7,4013.8,4156.8
-13305.4,-11572.9,-12033.6,-16389.1,2333.2,5243.3,4015.3,4159.6
-13306.5,-11577.1,-12036.9,-16390.3,2339.9,5252,4026.1,4174.5
-13304.6,-11573,-12036.8,-16389.5,2335.7,5253.5,4026.7,4173.6
-13303.7,-11564,-12035.8,-16385.4,2331.8,5250.1,4017.6,4165.5
-13303.8,-11561.3,-12032.6,-16382.2,2329.6,5247.3,4011.3,4165.3
-13304.5,-11565.4,-12031.7,-16383.2,2330.5,5249,4014.6,4169.4
-13305.2,-11563,-12030.8,-16382.3,2331.6,5248.5,4014.4,4164.4
-13305.1,-11564.5,-12028.7,-16380.7,2330.8,5245.4,4012.1,4160.2
-13303.6,-11566.2,-12029.6,-16379.8,2327.4,5243.6,4011.3,4160.2
-13303.8,-11566.1,-12032.4,-16382.3,2327.1,5247,4018,4167.5
-13304.1,-11562.9,-12031.8,-16385,2326.6,5246.5,4017.8,4166.4
-13303.3,-11561.7,-12030.6,-16383.5,2325.5,5243.4,4013.6,4163.4
-13303.6,-11563.6,-12028.6,-16381.1,2326.8,5241.4,4011.6,4162.6
-13304.3,-11567.9,-12028.4,-16381.1,2321.3,5234.8,4006.6,4154.2
-13302.8,-11567.3,-12031,-16382.1,2320.3,5233.2,4002.7,4150.4
-13303.5,-11569.3,-12032.4,-16385.3,2324.4,5234.8,4004.8,4154.9
-13305.5,-11571.4,-12032.7,-16387.4,2323.2,5234.8,4006.5,4155.5
-13303.9,-11564.1,-12030.1,-16385.3,2317.3,5227.4,3997.6,4143.3
-13304.6,-11566.5,-12030,-16385.3,2319.3,5225.4,3996.2,4145.8
-13303.7,-11569.5,-12030.6,-16386,2318.4,5228.4,3998.8,4153.9
-13301.9,-11568.4,-12030.2,-16384.6,2316.8,5228.4,3998.4,4154.7
-13301.8,-11567.4,-12030.6,-16383.7,2318.7,5229.2,4000.7,4154.1
-13302,-11569.1,-12032.7,-16384.5,2319.7,5230.6,4002.9,4154.3
-13304.9,-11570,-12035.4,-16385.9,2320,5232,4003.8,4155.2
-13307.8,-11569.9,-12037.3,-16387.3,2317.7,5233.5,4005,4156.4
-13311.3,-11570.1,-12041.9,-16388.9,2315,5232.6,4003.5,4154.4
-13317.4,-11575,-12039.2,-16389.8,2316.8,5232.1,4003.3,4154.7
-13318.9,-11577,-12036.1,-16390,2318.2,5234.6,4006.7,4158.1
-13316.2,-11578.5,-12034.1,-16390.9,2318.3,5236.5,4010.3,4158.5
-13312.6,-11575.4,-12031.2,-16389.4,2320.5,5236.9,4009.2,4155
-13312.9,-11574.9,-12032.7,-16391.7,2320.2,5236.3,4008.7,4155.5
-13312.6,-11573.4,-12033.7,-16392.6,2318.3,5235,4004.8,4155.4
-13314.8,-11574,-12036.6,-16390.1,2318.6,5236,4003.6,4158.7
-13315.1,-11575.7,-12038.6,-16385.8,2324.7,5243.5,4011.6,4170.2
-13311.7,-11576.9,-12036.2,-16384.6,2324.2,5245.3,4015.9,4170.4
-13309.2,-11572.9,-12036.3,-16385,2322.5,5243.3,4013.4,4166.5
-13308.6,-11571.2,-12035.9,-16386.4,2322,5243.5,4011.8,4167.2
-13307.4,-11572.4,-12035.4,-16386.2,2325.2,5245.5,4015,4167.2
-13307.4,-11572.1,-12035.2,-16385,2326,5246.4,4016.3,4163.6
-13310,-11571.4,-12035.3,-16384.1,2327.6,5246.3,4015.7,4162.6
-13311.7,-11570.4,-12037.3,-16386.4,2327.9,5245.9,4016.9,4163.1
-13313.2,-11573.1,-12040.9,-16390.8,2327.6,5249.3,4024.8,4169.8
-13315,-11571,-12038.4,-16390.4,2326.5,5250.3,4025.5,4167.9
-13312.9,-11567.5,-12036,-16388.6,2325,5247.1,4020.4,4161.6
-13309.6,-11566,-12036.2,-16386.8,2323,5242.5,4013.9,4156.7
-13309.4,-11567.3,-12037.8,-16386.4,2317.2,5235.1,4004.6,4148
-13308.7,-11567.7,-12037.4,-16386.6,2315.6,5230.9,3998.8,4144.6
-13310.5,-11573.5,-12037.4,-16389.5,2316.8,5231.3,4000,4150.4
-13312.9,-11574.3,-12038.6,-16387,2316.5,5231.9,4000.2,4151.5
-13313.7,-11567.2,-12036.7,-16382.9,2313.3,5224.4,3993.1,4140.1
-13313.4,-11569.6,-12034.8,-16387.2,2314.1,5220.6,3992.3,4141.3
-13314.1,-11570.5,-12035,-16391.6,2316.4,5223,3997.6,4143
-13313.2,-11569,-12036.7,-16390.8,2320.1,5225.9,4001.2,4144.9
-13315,-11573.2,-12037,-16390.3,2323.6,5229.2,4007.2,4148.4
-13316.3,-11574.7,-12039.3,-16388.4,2321.6,5231.3,4008.9,4150.5
-13313.4,-11573,-12038.9,-16384.2,2313.6,5231.4,4006,4152.4
-13311.4,-11571.1,-12038.5,-16383.9,2307.5,5230.4,4003.6,4154.4
-13311.9,-11569.6,-12040.4,-16387,2304.9,5227.4,4003.2,4149.3
-13312.9,-11570.7,-12039.3,-16385.3,2310.1,5225.7,4002.9,4144.6
-13313.9,-11574.8,-12038.7,-16385.3,2308,5227.4,4002.7,4148.8
-13318.1,-11576.1,-12039.1,-16385.3,2311.2,5230.5,4005,4150.7
-13318.3,-11571.2,-12038.7,-16383.2,2315.5,5230.2,4003.4,4147.1
-13317.1,-11569.4,-12037.5,-16384.2,2314.4,5228.2,4002.9,4145.9
-13318.4,-11570.5,-12035.2,-16386.3,2314.6,5230.2,4006.2,4149
-13317.9,-11575.1,-12035.6,-16387.7,2314.8,5234.5,4010.5,4155.4
-13316.7,-11576.1,-12036.5,-16385.7,2320.1,5242.5,4017,4165.3
-13313.4,-11572.7,-12033.1,-16383.7,2320.8,5243.3,4017.3,4163.6
-13313,-11568.7,-12031.8,-16382.7,2318.5,5240.4,4013.6,4158.9
-13313,-11564.9,-12032.5,-16379.6,2316.2,5236.6,4008.7,4153.1
-13310.9,-11563.1,-12032.3,-16376.7,2316.5,5235.6,4006.1,4153.7
-13308.9,-11562.9,-12033.8,-16376,2315.9,5236.3,4005.9,4155.8
-13309.5,-11563.9,-12032,-16376.4,2318.1,5237.2,4008.1,4155.9
-13313.2,-11566.1,-12034.8,-16379,2318.5,5238.4,4012.1,4158.6
-13314.8,-11570.7,-12035.8,-16382.9,2320.3,5245,4024.7,4168.6
-13311.5,-11567.3,-12033,-16385.8,2320.2,5246.2,4026.4,4166.4
-13306.8,-11562.6,-12031,-16386.4,2318,5242.1,4019.5,4159.8
-13305.6,-11562.2,-12030.6,-16383.7,2317.4,5237.9,4013.1,4153.9
-13304.9,-11563.8,-12032.4,-16382.1,2313.6,5230.4,4003.2,4143.6
-13305.5,-11566.4,-12033.3,-16383.7,2311.4,5226.6,3998,4140.3
-13308.2,-11571,-12034.4,-16384.7,2314.3,5228.8,3999.8,4144.5
-13309.8,-11574.4,-12037.1,-16386.3,2314.8,5230.3,4002.5,4147.3
-13305.5,-11570.1,-12034.5,-16386.1,2312.1,5224.5,3997.1,4139
-13307.6,-11575.1,-12032.8,-16388.1,2317,5224.6,4000,4143.8
-13308,-11580.9,-12033.2,-16391.2,2320.6,5229.4,4007.9,4150.9
-13306.5,-11581.6,-12034.1,-16393,2321.2,5232.3,4011.8,4153
-13305.2,-11577.9,-12036.2,-16392.3,2319.9,5234.2,4011,4153.2
-13307.8,-11577.3,-12038.4,-16392.1,2318.6,5236.1,4010.5,4155.1
-13308.7,-11578.2,-12037.3,-16392.7,2317.4,5236.8,4010.6,4156.8
-13309.1,-11577.5,-12034.9,-16393.1,2315.5,5235.8,4010.4,4155.4
-13310.5,-11578,-12035.9,-16395.2,2311.1,5235,4010.1,4154.4
-13310,-11579.5,-12036.2,-16394.8,2311.3,5234.1,4009.6,4152.3
-13308.1,-11577.2,-12035.4,-16394.2,2312.9,5233.5,4008.6,4149.4
-13310.4,-11575.4,-12034.7,-16393.8,2313.6,5232.8,4006.2,4147
-13307.1,-11575.5,-12033.4,-16394.9,2316,5232.6,4003,4145.5
-13305.7,-11577,-12034.9,-16396.9,2315.6,5232.3,4001.8,4146.5
-13308.1,-11576.8,-12037.2,-16397.4,2317.7,5232.7,4002.9,4146.1
-13307.4,-11575.8,-12038.9,-16397.9,2318.8,5234.5,4004.1,4149.3
-13310.2,-11577.4,-12040.2,-16397.5,2324.1,5242.3,4012.3,4161.6
-13309.2,-11579,-12037.4,-16400.7,2324.7,5245.9,4016.5,4164.6
-13306.7,-11578.2,-12036.1,-16399.4,2325.7,5245.6,4017.2,4163.2
-13305.8,-11579.6,-12036.7,-16399,2328.3,5245.7,4019.7,4163.5
-13303.9,-11579.3,-12034.8,-16397.2,2328.1,5245.9,4021.4,4164.6
-13301.6,-11575.4,-12032.4,-16394.3,2324.2,5244.2,4019.2,4161.6
-13299.9,-11572.3,-12029.7,-16393.6,2321.8,5243.5,4017.7,4158.9
-13300.6,-11570.4,-12030.5,-16393.1,2318.1,5243.5,4016.6,4156.4
-13302.2,-11572.7,-12037.4,-16396.1,2320.2,5247,4022.5,4161
-13300.6,-11571.3,-12037.1,-16396,2320.9,5246.6,4022.1,4160.3
-13301.3,-11570.3,-12033.1,-16395.6,2317.1,5242.8,4016,4156.6
-13305,-11570.5,-12032.4,-16395.8,2318,5240,4010.1,4154.6
-13310.1,-11574.7,-12032.6,-16395.6,2315.5,5232.8,4002.8,4146.6
-13316,-11576.9,-12035.3,-16394.2,2315.9,5229.1,3995.9,4140.6
-13323,-11585,-12042,-16400.5,2319.7,5230.2,3996.1,4144.5
-13326.2,-11591.3,-12044.8,-16404.9,2321.7,5231.2,3997.9,4147.5
-13321.3,-11589.4,-12040.7,-16405.6,2318,5226,3994,4141.1
-13316.3,-11592,-12035.9,-16408.8,2316.4,5225.6,3998.1,4147
-13313.4,-11590.2,-12033.9,-16407.8,2314,5230.2,4007.2,4152.9
-13312.1,-11585,-12034,-16404.5,2314,5234.9,4013.7,4154.8
-13306.7,-11581.4,-12031.5,-16403.9,2312.1,5236.3,4015.8,4156.4
-13303.2,-11581.3,-12029.4,-16405,2310.7,5237.4,4017.8,4156.7
-13303.3,-11582.9,-12029.4,-16405.4,2313.2,5238.7,4018.3,4155.2
-13301.7,-11583.7,-12030.1,-16407.4,2313.2,5240.2,4019.8,4157.3
-13300,-11583.9,-12027.6,-16410.5,2308.7,5238.5,4019.8,4154.3
-13302.8,-11583.8,-12027.6,-16409.5,2311.4,5237.1,4019,4151.3
-13302.3,-11586.5,-12030.5,-16409.8,2314.7,5239,4020.6,4153.6
-13300.1,-11589.1,-12030.5,-16410.7,2316.7,5239.2,4021,4153.4
-13297.5,-11585.2,-12029.3,-16408,2318.7,5238.3,4017.6,4151.2
-13298,-11583.3,-12030.2,-16407.4,2316.6,5237.9,4017.3,4154.1
-13298,-11583.1,-12029.5,-16407.8,2317.5,5238.6,4017.7,4156.2
-13301.7,-11587.2,-12030.5,-16410.6,2322.2,5242.9,4021.7,4163.7
-13305.9,-11591.2,-12034.8,-16408.1,2330.6,5254.1,4033.2,4180.2
-13304.6,-11587.7,-12032.8,-16403.4,2329.5,5255.9,4036.4,4179.8
-13301.1,-11582.5,-12028.7,-16400,2327.3,5251.4,4032.5,4170.3
-13296.3,-11580.2,-12025.5,-16398.2,2326,5249.5,4027.7,4166
-13293.7,-11583.4,-12023.8,-16398.2,2327.8,5251.5,4029.1,4169.2
-13293.3,-11581.3,-12025.6,-16398.4,2329.7,5251.6,4028.1,4167.1
-13290.5,-11579.4,-12027.9,-16399.1,2331.1,5250.1,4027.1,4164.3
-13289.1,-11583.4,-12024.8,-16401.8,2328.5,5249.9,4027.8,4165.1
-13290.4,-11584.6,-12023.1,-16402.5,2326.8,5253.7,4033.6,4169.6
-13290.7,-11581.5,-12020.4,-16401.1,2328,5252.8,4034.1,4167.5
-13289.3,-11579.7,-12020.1,-16399,2329.2,5248.1,4030.2,4160.5
-13289.3,-11577.2,-12020.9,-16396.3,2330.6,5243.7,4024.7,4154.4
-13288.6,-11577.4,-12018.9,-16393.9,2324.5,5234.4,4012.5,4144.3
-13289.7,-11578.3,-12017.8,-16395.1,2319.3,5228.8,4004.2,4142.9
-13292.3,-11581.5,-12020,-16397.6,2319.2,5230.8,4006,4150
-13291.7,-11581.4,-12021.2,-16399.5,2316.7,5231.6,4008.1,4151.3
-13290.3,-11578.3,-12019.8,-16401.7,2312.6,5226.6,4002.9,4143.2
-13292.4,-11581.7,-12020.4,-16401.2,2316.2,5226.5,4001.7,4145.1
-13295.8,-11587.2,-12021,-16402.6,2320.9,5232.3,4008.5,4153.7
-13294.4,-11591.7,-12021.6,-16406,2323.1,5237.6,4016.9,4157.2
-13292.5,-11589.4,-12021,-16406.1,2324.4,5238.3,4017.9,4153.2
-13293.1,-11590.7,-12022,-16406.8,2326.4,5238.1,4019.2,4152.1
-13291.2,-11588.7,-12023,-16405.9,2322.8,5236.6,4015.8,4150.1
-13290.8,-11588.2,-12023.3,-16407.8,2319.4,5235.6,4014,4149.2
-13289.9,-11587,-12023.9,-16411.7,2309.7,5231.5,4008.5,4145.2
-13288.7,-11584.3,-12026,-16410.6,2308.8,5229.4,4003.3,4142.4
-13293.4,-11589.6,-12028.6,-16411.2,2311.8,5231.4,4006.8,4146.5
-13294.9,-11589.9,-12026.9,-16408,2311.7,5232.9,4007.2,4147.9
-13298.2,-11588,-12026,-16406.5,2316.6,5234.3,4007.6,4149.3
-13300.9,-11589.1,-12027.3,-16407.2,2316.5,5235.9,4009.7,4152.9
-13302.4,-11588.4,-12029,-16405.4,2315.8,5236.8,4008.9,4153.5
-13303.8,-11589.2,-12031,-16405.7,2319.8,5239.1,4012.2,4158.2
-13305,-11588.4,-12031.2,-16404.8,2323.9,5247.6,4022,4169.7
-13300.3,-11586.5,-12027.6,-16406.1,2323.2,5251.2,4028.7,4171.9
-13296.6,-11584.7,-12026.3,-16407.7,2322.7,5252.2,4032.1,4169.6
-13295.1,-11585.6,-12024,-16406.2,2324.5,5253.1,4033.1,4169
-13294.7,-11585.6,-12023.1,-16403.9,2328.3,5254.3,4034.1,4169.3
-13293.4,-11584.5,-12022.5,-16403.7,2329.2,5256.2,4036.3,4169.1
-13292.5,-11582.2,-12020.1,-16403.6,2329.6,5255.8,4036.6,4166.3
-13289.2,-11582,-12017.8,-16404,2328.8,5252.4,4035.5,4162.7
-13288.6,-11585.7,-12019.6,-16405.4,2329.6,5254.3,4041.4,4168.7
-13288.2,-11583.9,-12018.2,-16404.7,2330.2,5256,4043.3,4168.7
-13286.5,-11581.3,-12015.9,-16403.9,2331.2,5254.1,4041.2,4164.5
-13286.1,-11579.2,-12014.5,-16402.2,2332.9,5250.7,4037.6,4160.7
-13287.1,-11580.3,-12013,-16402.2,2329.3,5243.1,4029.1,4152.7
-13284.9,-11576.8,-12011.4,-16403.1,2322,5238.6,4019,4147.3
-13284.8,-11578.5,-12013.1,-16401.9,2319.2,5238.2,4016.9,4149.8
-13283.8,-11577.9,-12016.4,-16396.7,2317,5238.6,4016.2,4150.7
-13287,-11573.8,-12017,-16395.7,2318,5233.9,4012.4,4144.3
-13288.1,-11580.3,-12016.2,-16399.1,2323.4,5234.2,4015.3,4149.3
-13287.8,-11583.1,-12015.5,-16398.1,2323.2,5236.9,4017,4153.9
-13289.6,-11587.3,-12016.3,-16400.2,2323.7,5241.4,4024.4,4160.5
-13288.8,-11584.5,-12016.3,-16398.5,2326,5244.4,4028,4160.2
-13286.2,-11584.8,-12014.5,-16399.3,2327.4,5245.7,4030,4162.6
-13285.3,-11587.2,-12014.3,-16399.6,2327.4,5248.1,4032.7,4165.5
-13286.6,-11587.2,-12015,-16400,2327.4,5249,4033.9,4164.6
-13287.2,-11587.8,-12015.2,-16403.1,2323,5246.4,4032.8,4161.7
-13286.7,-11586.5,-12014.5,-16402.3,2320.5,5242.2,4026.7,4154.5
-13287.1,-11583.3,-12013.1,-16399.7,2323.1,5240.3,4022.6,4151.1
-13284.5,-11583.9,-12012.6,-16397.7,2323.8,5240.2,4021.8,4152.2
-13282.5,-11578.8,-12015,-16395.4,2324.7,5239.7,4017.7,4150.9
-13284.8,-11578.9,-12016.1,-16396.6,2324.4,5239.2,4017.7,4153
-13287.9,-11580.9,-12015.9,-16397.4,2325.1,5240.7,4020.7,4154.7
-13290.2,-11578.6,-12017,-16395.1,2329.4,5242.3,4022.9,4157.3
-13291.3,-11581.3,-12018.5,-16394.2,2336.1,5250.9,4032.9,4170.1
-13287.4,-11581.1,-12014.1,-16393.6,2333.2,5253.8,4036,4169.5
-13285.7,-11577.5,-12011.5,-16393.4,2330.3,5252.1,4033,4164.1
-13285.9,-11573.4,-12011.8,-16392.5,2330.3,5250.5,4029.3,4161.1
-13283.9,-11575.6,-12008.9,-16392,2331.8,5253.7,4032.3,4167.3
-13283.2,-11574.5,-12006.1,-16391.3,2330.3,5255.4,4032.2,4168.6
-13281.5,-11570.3,-12004,-16391.9,2327.8,5252.8,4028,4163.3
-13284,-11567.4,-12006,-16391.2,2327.7,5249.1,4026.4,4157.5
-13284.9,-11570.3,-12009.1,-16390,2327.5,5250.6,4030.3,4160.7
-13282.2,-11571.1,-12006.4,-16389.3,2324.9,5249.5,4028.2,4158.6
-13279,-11571.2,-12004.1,-16389,2323.2,5245.9,4021.9,4155.5
-13282.8,-11574.5,-12004.6,-16388.9,2324.6,5244.8,4021.4,4156.4
-13284.5,-11577.4,-12009.9,-16387.5,2325.2,5240.6,4019.1,4150.3
-13281.7,-11579.6,-12011.7,-16389.3,2324.2,5236.7,4017,4147.2
-13282.1,-11579,-12011.1,-16390.4,2322.6,5235.3,4014.7,4146.8
-13284,-11574.9,-12011.6,-16388.8,2318,5232.6,4008.4,4144.6
-13286,-11570.6,-12012,-16386.2,2312.1,5225.9,3998,4137
-13289,-11575.2,-12015.7,-16387.4,2313.4,5225.3,3994.1,4141.8
-13290.5,-11579.7,-12019.2,-16391.2,2313.7,5227.9,3996.7,4148.5
-13291.4,-11581.2,-12018.5,-16394.1,2317.6,5231.4,4003.4,4150.9
-13293.4,-11584.2,-12013.3,-16395.7,2319.6,5233.8,4009.1,4152.5
-13295.5,-11584.7,-12011.1,-16394.7,2319.8,5234.8,4011.1,4152.3
-13296.1,-11585.6,-12011.5,-16393.8,2319.9,5235.8,4013.2,4152
-13293.1,-11586,-12014.7,-16394.1,2317.8,5237.6,4015.5,4153.5
-13291.8,-11586,-12022.9,-16397,2314,5237.6,4014.6,4153
-13292.9,-11588.8,-12024.2,-16398,2316.5,5237,4015.3,4152.8
-13296.5,-11588.9,-12023.8,-16401.1,2319.9,5239.4,4018.8,4154.4
-13295.3,-11585.1,-12023.4,-16400.1,2319.2,5239.4,4016.2,4154.7
-13293.4,-11581.3,-12022.9,-16396.8,2317.5,5236.5,4010.5,4151.4
-13291.3,-11580.8,-12021.7,-16394.5,2316.5,5233.5,4006.8,4151.2
-13289.7,-11584.8,-12021.9,-16394.6,2316.1,5233.7,4008.3,4154.4
-13288.3,-11586.1,-12024.6,-16393.9,2319.1,5235.9,4012.6,4155
-13291.1,-11585,-12028.7,-16392.6,2325.2,5244.1,4021.3,4164.9
-13291.1,-11584.7,-12026.7,-16393.9,2327.8,5245.9,4024.2,4164.4
-13291.2,-11581.8,-12024.3,-16394,2327.7,5243.1,4021.1,4158.9
-13288.6,-11581.6,-12021.7,-16394.1,2324.4,5242.5,4018.8,4160.2
-13285,-11583.1,-12018.8,-16392.9,2321.3,5245.6,4019.9,4165.2
-13285.3,-11584.2,-12018.4,-16391.5,2322.8,5247,4021.8,4164.2
-13283.3,-11584.8,-12017.7,-16391,2323.9,5245.6,4021.9,4161.8
-13283,-11583.9,-12020.6,-16391.5,2324.7,5244.7,4021.7,4159.8
-13285.8,-11586.2,-12024.9,-16394.7,2325,5247.3,4027.5,4166.3
-13284.9,-11583,-12023.8,-16394.7,2325.6,5248.2,4030.1,4167.1
-13285.5,-11580.1,-12024.6,-16393,2326.8,5245.3,4026.1,4163.3
-13285.9,-11579.4,-12021.8,-16390.7,2324.3,5242.4,4020.2,4160.5
-13285.4,-11581.7,-12021.3,-16389.9,2318.1,5237.4,4013.7,4155
-13284.2,-11581.8,-12020.5,-16392,2315.6,5236.5,4010,4152.8
-13284.2,-11584.1,-12020.6,-16395.6,2318.1,5237.7,4013.3,4154.5
-13286,-11585.7,-12024.1,-16397.9,2319.4,5238.4,4015.9,4153.7
-13288.4,-11579.1,-12024.2,-16396.9,2320.7,5231.8,4008.5,4142.8
-13290.3,-11587.7,-12026.2,-16402.4,2328.3,5233.5,4015.8,4150.2
-13290.6,-11588.9,-12023.5,-16400.4,2323.7,5236.8,4017,4153.6
-13290.7,-11585.5,-12020.4,-16397.8,2316.4,5236.7,4013,4154.2
-13290.7,-11584.1,-12018.7,-16396.4,2315.4,5238.3,4014.5,4155.7
-13291,-11584.1,-12021.5,-16396.6,2318.4,5240.5,4018,4156.8
-13290.9,-11584.3,-12024.7,-16396.8,2320.7,5241.9,4020.6,4158.5
-13291.5,-11583.3,-12023.2,-16397.8,2318.5,5241.2,4021.4,4158.7
-13291.5,-11582.8,-12023.4,-16400,2313.5,5238.9,4019,4155.3
-13290.2,-11582.5,-12023.6,-16399.1,2316.2,5238.3,4018.3,4154.2
-13291.3,-11580.1,-12025,-16397.2,2316.7,5238.3,4018.9,4155.6
-13293.2,-11573.9,-12025.2,-16393.8,2316.7,5237.4,4016.5,4155.2
-13291.3,-11570.4,-12022.8,-16393,2317.9,5235.7,4013.6,4151.3
-13290.2,-11572.5,-12022.1,-16394.6,2318.1,5234.6,4012.5,4151.8
-13289.8,-11578.5,-12021.6,-16397.3,2319,5235.1,4013.3,4154.7
-13287.2,-11578.2,-12019.8,-16397,2320.7,5235.2,4014.8,4157.3
-13289,-11577.3,-12021.9,-16396,2327,5244,4024.1,4168.7
-13289.1,-11575.5,-12019.9,-16395.1,2328.2,5246.7,4028.8,4166
-13284.4,-11568.5,-12015.7,-16391.6,2323.5,5243.8,4026.7,4160.9
-13280.6,-11558.9,-12011.9,-16387.2,2317.4,5241.5,4022.5,4157.7
-13277.7,-11555.6,-12007.6,-16384,2315.5,5242.2,4023.1,4159.4
-13278.7,-11550.8,-12007.1,-16381,2315.9,5241.6,4024.1,4158.2
-13279.6,-11543.5,-12008.3,-16378.4,2315.3,5239.6,4022.3,4153.9
-13281.3,-11537.9,-12010.7,-16376,2314.6,5238.5,4021.5,4152
-13285.3,-11534.7,-12014.3,-16375.2,2314.8,5241.1,4028.2,4158
-13286.9,-11529.5,-12012.6,-16373,2315.1,5241,4028.2,4155.3
-13284.2,-11522.3,-12011.8,-16370.6,2312.3,5236.7,4022.8,4150.3
-13279.9,-11517.7,-12007.6,-16368.4,2307.5,5232.6,4017.3,4147.2
-13278.7,-11514.2,-12004.1,-16364.2,2299.8,5225.9,4009,4136.9
-13281.9,-11507.1,-12004.6,-16359.8,2297.6,5222.7,4004.3,4133.3
-13283.9,-11501.5,-12004.7,-16357.7,2295.4,5223.1,4006.5,4137.9
-13286.5,-11493.3,-12005.3,-16354.5,2291.9,5221.9,4006.3,4137.1
-13287.1,-11479.4,-12002,-16349.5,2288.7,5214.8,4000.2,4126.6
-13285.6,-11476.4,-11999.9,-16346.8,2290,5212.5,3999.6,4127.5
-13283.8,-11477.8,-11998.1,-16346.4,2290.9,5214.6,4000.9,4130.1
-13283.1,-11479.9,-11995.1,-16347.8,2292.1,5218.8,4005.5,4134.2
-13283.3,-11476.2,-11994.7,-16347.3,2294.1,5223.2,4012.1,4138.9
-13284.2,-11469.7,-11996.2,-16344.3,2293.3,5226.5,4015.5,4142.1
-13287.1,-11462.9,-11997.2,-16341.5,2291.6,5228.4,4016.9,4143.9
-13286,-11455.6,-11998.7,-16338.7,2288.8,5228.7,4015.9,4142.4
-13285.2,-11453.6,-12002.9,-16340.6,2285.5,5226.9,4014.6,4141.4
-13284.8,-11455,-12000.8,-16342.3,2290.1,5228.3,4015.8,4140.3
-13284.6,-11455.6,-11999.5,-16341.2,2293.6,5230.2,4018,4141.1
-13285.7,-11454.8,-12001,-16334.4,2295.5,5230.3,4017.8,4141.4
-13284.6,-11452.4,-12001.7,-16328.2,2298.6,5230.2,4016,4140.1
-13283.2,-11450.2,-12005,-16328.4,2302.2,5230.5,4014.9,4140.3
-13283.7,-11450.4,-12001.1,-16331.5,2303.3,5230.1,4014.9,4142.1
-13282.3,-11453.5,-11994.9,-16330.4,2301.6,5231.4,4017.6,4145.9
-13282.5,-11451.8,-11994.8,-16327.8,2305.1,5241.4,4026.8,4158.7
-13282.6,-11449.1,-11993.8,-16327,2305.6,5246.2,4029.6,4160.9
-13281.4,-11446.4,-11992.1,-16325.7,2305.3,5245.3,4027.1,4158.5
-13279.7,-11447.3,-11990.2,-16325.5,2306.6,5243.3,4024.6,4154.8
-13279.5,-11448.6,-11988.8,-16323.6,2310.6,5242.5,4023.2,4151.3
-13280.6,-11449.6,-11988.3,-16324,2314.2,5240.2,4019.5,4147.8
-13283.2,-11450.4,-11988.8,-16324.9,2317.1,5235.3,4015,4143.8
-13286.3,-11454.1,-11993.9,-16326.8,2320.1,5233,4014.7,4142.7
-13287.7,-11459.4,-11999.4,-16328.5,2318.4,5236.3,4019.4,4149.7
-13292,-11461.4,-11999.9,-16330.5,2319.7,5239.4,4020.7,4151.4
-13292.6,-11462.7,-12001.1,-16335.6,2318.8,5238.6,4017.8,4148.8
-13290.1,-11467.4,-12000,-16337.2,2317.5,5236.5,4012.6,4144.9
-13288.9,-11476.4,-11998.5,-16337.7,2312.9,5230.5,4004.9,4138.2
-13288,-11476.4,-11998.7,-16336.8,2307,5227.8,3999.7,4137.2
-13287.2,-11476.5,-11998.5,-16339.1,2302.9,5228.1,3999.7,4141.2
-13288.1,-11479.5,-11999.6,-16342.6,2303.3,5228,4000.4,4141
-13292.1,-11479.2,-12001.5,-16343.5,2303.4,5221.3,3993.3,4132
-13296.1,-11487.4,-12005.7,-16345.7,2309.9,5221.2,3994.3,4136.1
-13291.7,-11497.3,-12008.8,-16349,2312.5,5226,4002.5,4144.2
-13288.6,-11504.4,-12008.8,-16351.9,2313,5232.1,4011.4,4151.8
-13290.1,-11506.3,-12007.5,-16352.5,2317.5,5236.8,4018,4153.6
-13293.2,-11510.5,-12009.4,-16354.8,2320.7,5239.2,4023.1,4153.1
-13291.2,-11509.5,-12010,-16351,2317.4,5239.6,4017.8,4150.9
-13290.1,-11510.3,-12010.9,-16351.6,2312.2,5237.4,4012.7,4149.9
-13289.8,-11513.9,-12011.1,-16356.2,2307.2,5233.4,4008.8,4145.5
-13289.6,-11518.4,-12012.6,-16358,2310.1,5231.7,4006.9,4143.8
-13289.9,-11523.3,-12014,-16359.6,2311.4,5232.1,4006.4,4145
-13292.5,-11526.5,-12009.9,-16358,2312.6,5232.3,4005.7,4144.9
-13293.7,-11527.6,-12009.4,-16358.5,2314.1,5232.5,4004.1,4145
-13293.6,-11527.2,-12012.1,-16361.4,2313.6,5233.2,4005.6,4147.3
-13292.6,-11525.4,-12013.1,-16364.6,2312.2,5232.7,4005.1,4148
-13293.3,-11526.6,-12015.8,-16369.2,2315.1,5233.9,4006.2,4151.5
-13296.7,-11532,-12021.2,-16369,2325.1,5241.1,4016.5,4161
-13297.3,-11532.2,-12020.5,-16364.8,2324.8,5242.9,4017.6,4160
-13296.9,-11533.8,-12017.9,-16364.1,2322.6,5241.5,4016.3,4156.7
-13297.5,-11534.5,-12017,-16365.1,2320.3,5241.3,4015.9,4156.5
-13293.7,-11536.3,-12017.1,-16364.5,2320,5243.7,4016.7,4159.2
-13291.1,-11539.9,-12016,-16365.2,2321.6,5244.7,4019.1,4160.4
-13291.8,-11539.2,-12014.3,-16365,2321.4,5243.2,4018.3,4156.5
-13293.4,-11539,-12016.1,-16366,2318.6,5242.9,4016.5,4155.4
-13290.3,-11538.6,-12020.2,-16367.2,2310,5243.8,4016.6,4160.8
-13289.2,-11539.1,-12021.6,-16368,2311.2,5242.1,4015.1,4160.6
-13291.8,-11539.7,-12020.9,-16366.1,2314,5238.5,4010.6,4154.3
-13296.3,-11543.2,-12018.4,-16367.4,2316.2,5235.2,4008.8,4148.8
-13295.7,-11546.3,-12018.2,-16368.5,2309.5,5230.2,4002.5,4142.5
-13293.7,-11548.8,-12020,-16372.5,2307.1,5229,4000.7,4142.4
-13295.8,-11551.8,-12019.8,-16375.4,2308.8,5229.4,4002.6,4142.5
-13297.4,-11553.6,-12021.2,-16376.1,2307.4,5229.9,4001.9,4142.2
-13296.5,-11547.6,-12028.2,-16372.9,2304.3,5224.2,3991.9,4133.4
-13298,-11551.1,-12027.4,-16379.2,2305.1,5221.9,3987.5,4137.5
-13299.9,-11556.8,-12024.6,-16382.7,2303.9,5226,3990.9,4146.4
-13304.2,-11562.1,-12020.8,-16380.2,2303.5,5229.9,3997.5,4150.7
-13303.9,-11564.6,-12019.1,-16378.5,2305.7,5233.1,4003,4150.1
-13304,-11568.7,-12021.5,-16379.9,2309.2,5236.5,4009.2,4150.3
-13301.5,-11568.4,-12024.2,-16380.5,2310.4,5238.5,4010.8,4149.9
-13302,-11568.8,-12023.8,-16384.5,2309.7,5239.6,4012.4,4152.5
-13307.6,-11569.9,-12025.8,-16388.9,2307.8,5238.4,4013.4,4149.7
-13312.9,-11569,-12026.9,-16385.7,2311.5,5237.2,4012.2,4146.5
-13311.1,-11570,-12027.9,-16386.7,2310.9,5238.3,4015.4,4150.5
-13307,-11566.8,-12030.3,-16384.7,2310.4,5237.7,4013.6,4147.5
-13304.7,-11565.1,-12029.1,-16382.9,2313.2,5236,4011.6,4143.4
-13304.1,-11566,-12029.2,-16382.6,2313.7,5235.3,4011.7,4141.5
-13303.3,-11567.3,-12028.2,-16383,2313.8,5234.4,4011.9,4140.6
-13304.6,-11568.4,-12028.8,-16382.9,2314.5,5236.1,4014.2,4145.1
-13305.2,-11570.2,-12029.8,-16379.6,2319.3,5243.3,4022.2,4157.4
-13303.7,-11568.5,-12026.6,-16376,2315.5,5243.5,4022.5,4157.7
-13304.8,-11566.5,-12025.7,-16374.5,2313.5,5241.2,4019.4,4154.2
-13304.6,-11563.2,-12025.2,-16373.2,2312.2,5238.6,4014.3,4151.9
-13305.6,-11563.4,-12024.8,-16372.3,2312.2,5238.2,4012.2,4153.3
-13305.9,-11564.4,-12027.1,-16372.4,2314.4,5238.2,4012.1,4151.7
-13305.6,-11565.6,-12027.7,-16373.8,2315.6,5236.1,4010.7,4147.7
-13306.6,-11567,-12029.1,-16377,2314.2,5236.1,4011.2,4148.6
-13309.5,-11569.6,-12033.9,-16383.9,2313.5,5241,4017.8,4157.8
-13310.5,-11568.1,-12034.1,-16383,2311.4,5241.9,4016.2,4156.3
-13309.5,-11570.9,-12033.2,-16383.6,2310.5,5240.6,4013.2,4154.4
-13305.2,-11574.6,-12030.5,-16383.4,2309.6,5238,4011.5,4153
-13300.9,-11575.2,-12030.4,-16381.3,2301.4,5231.1,4003.9,4144.9
-13300.1,-11575.5,-12031.1,-16380.4,2300,5230.6,4000.8,4142.8
-13302.2,-11581.9,-12030.4,-16384,2303.7,5233.8,4006.7,4147.1
-13302,-11583.6,-12030.2,-16385.6,2306.3,5235.3,4011.9,4146.6
-13301.9,-11578.7,-12028.6,-16385.8,2306.9,5231.2,4009.6,4139.5
-13303.7,-11578.6,-12029.6,-16385.7,2307.2,5230.5,4007,4144.4
-13304,-11580.2,-12033.2,-16385.4,2307.7,5233.8,4009.7,4150.9
-13304.6,-11579.6,-12032.3,-16385.5,2306.9,5234.9,4010.7,4153.1
-13304.2,-11579.3,-12028.6,-16383.4,2307.1,5235.2,4011.5,4152
-13302.2,-11580.1,-12025.1,-16383,2304.3,5234.5,4010.7,4149.5
-13300.2,-11581.2,-12022,-16382.5,2305.3,5234.5,4010.6,4147
-13305.4,-11582.3,-12023.3,-16383.9,2309.4,5235.1,4013.7,4148.2
-13303.8,-11582.8,-12028,-16386.8,2305,5233.6,4015.3,4147.5
-13302.9,-11581.8,-12029.4,-16385.7,2304.7,5232.7,4012.5,4145.3
-13303.2,-11581.3,-12028.4,-16386.1,2304.8,5232.3,4010.8,4143.7
-13302.8,-11580.1,-12027.4,-16382.6,2301.4,5231.5,4006.3,4142.6
-13304.6,-11578.4,-12029.8,-16378.8,2305.1,5230.4,4000.6,4139
-13303.8,-11580.3,-12028.7,-16380.9,2306,5230.2,4000.9,4141
-13303.4,-11583.3,-12026.3,-16381.8,2302.2,5231,4001.5,4143.8
-13302.8,-11582.1,-12026.2,-16379.6,2300.1,5231.6,4000.9,4145.4
-13304.8,-11579.6,-12030.5,-16381.4,2307.9,5239.9,4010.8,4157.1
-13305,-11576.7,-12031.9,-16383.1,2310.3,5243.2,4015.5,4157.8
-13301.7,-11579.8,-12032.8,-16381.8,2311.6,5244.6,4019.4,4158.3
-13299.3,-11581.3,-12032.5,-16381.1,2313.4,5246.6,4023.5,4159.4
-13296.9,-11582.3,-12029.4,-16381.5,2314.8,5249.1,4027.5,4162.6
-13295.5,-11578.4,-12026,-16379.3,2315.4,5249,4027.4,4160.1
-13296.6,-11578,-12025.5,-16378.7,2316.5,5247.5,4026.5,4157.5
-13295,-11578.6,-12026.7,-16378.7,2316,5246.1,4026.4,4156.2
-13294.8,-11579.9,-12030.6,-16380,2315.5,5247.8,4031.3,4160.7
-13296.1,-11575.1,-12031.7,-16377.7,2316.5,5247.5,4031.4,4159.4
-13294.3,-11573.7,-12026.9,-16376.4,2313.9,5243.5,4026.6,4155.8
-13291,-11573.8,-12024.9,-16374.6,2312.3,5240.1,4020.6,4151.9
-13287.8,-11575.4,-12025.3,-16372.3,2306.7,5232.3,4010.3,4142.2
-13286.8,-11575.9,-12023.8,-16371.3,2303.4,5228.7,4004.3,4137.4
-13288.1,-11578,-12022.3,-16372.1,2304.1,5229.1,4003.8,4136.5
-13291,-11579.1,-12024.4,-16374.1,2304.2,5229.3,4005.3,4136.7
-13291.5,-11573.5,-12022.5,-16373.7,2303.4,5224.4,4000.7,4128.6
-13294.2,-11578.2,-12023.3,-16374.3,2306.6,5223.7,4001,4133.2
-13297.5,-11582.4,-12028,-16374.4,2308.2,5228.8,4005.2,4143.9
-13298.2,-11583.1,-12032.5,-16375.3,2308.6,5232.7,4007.5,4148.8
-13295.8,-11580.6,-12030.3,-16374.3,2305.8,5233.2,4007.3,4145.3
-13295.6,-11583.1,-12026.4,-16376.3,2304.5,5232.7,4008.9,4144
-13294.7,-11582.8,-12023,-16376.6,2304.3,5234.3,4009.9,4144.5
-13297.3,-11585.4,-12022.6,-16382.4,2305.3,5237.2,4015.3,4148
-13296.2,-11582,-12023.1,-16389.1,2301.1,5236.3,4015.3,4144.2
-13297.3,-11583.3,-12025.1,-16388.2,2304,5237.5,4015.4,4144.4
-13299,-11587.1,-12024.9,-16385.2,2304.8,5239.4,4018.8,4147
-13297.9,-11585.7,-12024.9,-16381.2,2304.3,5240.2,4016.3,4144.5
-13297.2,-11581,-12024.6,-16378.5,2305.8,5239.6,4012.2,4142.4
-13298.3,-11578.2,-12024.1,-16378.5,2304.6,5239.9,4009.6,4144.3
-13297.3,-11577.2,-12022.3,-16378.8,2302.9,5238.2,4008.6,4145.4
-13299,-11577.4,-12023.6,-16379.5,2304.3,5237.9,4011.6,4148.6
-13300.5,-11579,-12026.7,-16378.9,2311.1,5246.5,4020.5,4160.1
-13296.8,-11574.8,-12025.8,-16374.7,2310,5247.2,4021,4157.1
-13295.3,-11573.4,-12024.9,-16372.3,2309.1,5245.1,4019.7,4152.1
-13296.7,-11573.3,-12022.7,-16370.6,2310.6,5244.3,4018.5,4150.5
-13299.1,-11574.1,-12018.7,-16369.7,2311.2,5244.1,4018,4152.3
-13297.6,-11570.9,-12016.8,-16367.9,2310.3,5242.6,4015.5,4151.5
-13296.6,-11571.9,-12015.3,-16368.9,2308.8,5240.4,4012.7,4150.3
-13297.1,-11573.5,-12016.8,-16371.8,2307.3,5239,4011.6,4149
-13297.9,-11575.3,-12019.3,-16374.7,2309,5241.6,4016.8,4153.4
-13297.8,-11575.4,-12017.3,-16376.1,2308.1,5242.7,4018.6,4154.6
-13296.7,-11572.2,-12016.2,-16374.3,2307,5239.9,4015.5,4150.8
-13296.6,-11573.7,-12017.3,-16373.6,2306.9,5237.7,4013,4149.3
-13296,-11575.9,-12019.2,-16373.2,2304.2,5234.7,4008.5,4145.5
-13299,-11576.4,-12020.1,-16374.4,2304.6,5233.7,4007.8,4143.2
-13302.2,-11578.5,-12021.9,-16376.6,2306.8,5234.8,4010.7,4146
-13301.1,-11577.9,-12025.4,-16376,2308.5,5235.2,4012,4146.3
-13299.8,-11574.3,-12023.4,-16378,2308,5229,4006.9,4135.4
-13300.2,-11580.3,-12020.9,-16382.6,2311.9,5228.5,4007.6,4137.6
-13297.4,-11584.2,-12019.7,-16383.9,2310.8,5231.1,4009.9,4142.9
-13297,-11584.5,-12020.5,-16386.3,2310.5,5232.6,4011.1,4144.8
-13297.3,-11585,-12021.6,-16385.6,2309.1,5234.2,4012.6,4147.4
-13296.9,-11584.6,-12023,-16382.7,2308.3,5235.1,4015.2,4146.8
-13297.1,-11582,-12025.6,-16380.1,2310.2,5236.3,4015.9,4145
-13298.5,-11581.6,-12025.6,-16382,2309,5236.6,4015.7,4146
-13299,-11583.7,-12024.7,-16386.4,2303.8,5235,4015.2,4145.8
-13299.3,-11588.1,-12023.2,-16385.9,2305.2,5235.7,4016.6,4146.8
-13299.7,-11589,-12022.2,-16385.5,2305.8,5236.7,4018.1,4147.4
-13298.7,-11586.1,-12020.8,-16383.9,2305.3,5236.9,4016.1,4146.8
-13295.1,-11581.9,-12018.2,-16381.8,2303.3,5234.8,4010.6,4142.8
-13296.4,-11579.9,-12019.7,-16381.6,2302,5234.4,4008.5,4143.7
-13297.6,-11580.5,-12022.8,-16382.1,2304.2,5235.9,4011.6,4147.2
-13297.8,-11580.9,-12023.8,-16380.6,2307.9,5237.8,4015.5,4151.2
-13300.4,-11581.9,-12025,-16379.4,2312.9,5245.9,4024.9,4163.9
-13299.2,-11579.3,-12022.9,-16378.6,2311.4,5249.1,4028.8,4165.6
-13295.7,-11575.4,-12021.4,-16376.7,2311,5246.8,4026.9,4160.9
-13294.1,-11573.7,-12020.7,-16376.3,2313.9,5246.3,4026,4159.1
-13294.3,-11578.1,-12019.3,-16378.4,2319.2,5249.4,4030.2,4162.6
-13292.9,-11579,-12017.6,-16378.2,2319.1,5249.3,4029.5,4160.3
-13291.1,-11575.7,-12016.5,-16376.7,2314.1,5246.4,4023.5,4157.5
-13291.9,-11571.8,-12020.4,-16376.1,2312.1,5244.9,4020.2,4158
-13294.4,-11575.9,-12025.6,-16379.6,2313.8,5247.1,4026.9,4163.9
-13293.3,-11577.7,-12020.7,-16382,2316.2,5247,4027.5,4163.8
-13288.3,-11576.7,-12016.5,-16382.9,2314.4,5244.8,4024.9,4160.5
-13290,-11574.4,-12017.1,-16379.8,2313.4,5241.4,4019.9,4156.5
-13293.7,-11577,-12018.6,-16376.9,2309.1,5235,4011.6,4149.6
-13292.5,-11578.3,-12019.5,-16380.9,2308.8,5233.1,4009.8,4148.1
-13294,-11581,-12021.8,-16386.6,2312.2,5236,4014.2,4150.5
-13294.4,-11584,-12023.8,-16386.1,2312.4,5237.9,4016.8,4149.5
-13293.8,-11578.1,-12019.8,-16383.5,2308.2,5231.5,4009.7,4140.9
-13297,-11581.1,-12018.3,-16384.3,2310.2,5229.8,4007.6,4145
-13298.8,-11583.2,-12021.6,-16384.2,2310.5,5232.6,4011.1,4150.5
-13297.3,-11585.5,-12024.7,-16384.9,2310.6,5235,4015.8,4152.8
-13295.2,-11583.3,-12024.8,-16382.5,2310.8,5235.5,4014.7,4149.5
-13294.2,-11582.7,-12025.7,-16381.8,2309.9,5236.4,4013,4149.5
-13293,-11583.6,-12025.6,-16382.5,2310.3,5238.2,4013.9,4151.4
-13294.4,-11583.1,-12026.5,-16385.3,2309.9,5239.5,4015.7,4153.8
-13296.4,-11584.3,-12027.6,-16389,2303,5238.1,4015.7,4151.9
-13298.1,-11585.3,-12028.5,-16387.3,2301.8,5235.9,4012.7,4148.1
-13300.3,-11586.7,-12029.4,-16387.6,2303.8,5234.8,4011.2,4146.7
-13298.7,-11585.2,-12027,-16386.6,2304.2,5233.9,4007.2,4145.6
-13298.1,-11584,-12023.6,-16384.8,2304.8,5231.3,4003.4,4143.9
-13299.1,-11582.8,-12022.9,-16383.7,2303.2,5229.5,4001.7,4144
-13300.2,-11582.9,-12026.1,-16384.4,2302.3,5229.8,4002.6,4147
-13299.1,-11585.3,-12029.1,-16385,2304.5,5231.3,4005.7,4148.5
-13299.1,-11586.5,-12032.1,-16385.1,2311.4,5236.9,4013.2,4156.4
-13297.7,-11584.1,-12030.1,-16384.3,2308.2,5237.5,4012.5,4155.9
-13296.7,-11578.5,-12026.7,-16381.3,2304.5,5233.7,4006.6,4148.2
-13294.6,-11577.2,-12024.8,-16379.5,2302.7,5231.4,4002.7,4145.4
-13292.7,-11581.1,-12026.2,-16379.5,2305.5,5234.4,4006.1,4149.9
-13291.9,-11582.5,-12026.8,-16380.3,2306,5236,4008.9,4151.6
-13292.6,-11580.2,-12026.4,-16380.8,2305.5,5235.4,4007.7,4149.4
-13292.5,-11580.1,-12029,-16382.7,2308.6,5236.9,4011.6,4151.5
-13293.4,-11585.2,-12031.4,-16387.2,2311.6,5243.9,4024.1,4159.7
-13295.1,-11583.1,-12028.3,-16389,2312.2,5244.4,4025.3,4155.7
-13294.7,-11580.9,-12025.5,-16387.2,2309.5,5239.9,4018.6,4148.9
-13296.1,-11582,-12025.5,-16385,2308.8,5236.5,4013.8,4145.5
-13294.5,-11585.5,-12025,-16382.7,2304.5,5229.9,4008.5,4139
-13294.6,-11584.5,-12028.6,-16382.9,2301.3,5229.7,4006.7,4139.1
-13297.8,-11585,-12032.4,-16384.7,2303.2,5232.2,4009.5,4142.3
-13298.6,-11583.9,-12035.1,-16383.5,2301.8,5232.3,4009.4,4142.2
-13297.8,-11578.5,-12030.9,-16382.3,2298.2,5225.3,4001.1,4134.4
-13299.9,-11584,-12029.3,-16387.4,2301.8,5225.6,4002.1,4138.6
-13297.3,-11588.6,-12030.9,-16389.6,2304.8,5229.7,4009.1,4144.5
-13293.4,-11589.5,-12030.4,-16388.8,2302.3,5232,4012.1,4146.8
-13292.7,-11588.9,-12028.9,-16390.1,2304.2,5234.2,4014.7,4147.1
-13292.1,-11589.7,-12029.5,-16391.8,2307.3,5235.8,4017.2,4148.6
-13291.3,-11591.4,-12028.5,-16390.2,2306.9,5236.5,4019.2,4150.1
-13291.3,-11592,-12027.7,-16391.1,2305.4,5237,4022,4151
-13294.1,-11593,-12031.7,-16393.7,2302.4,5236.3,4022.6,4149.2
-13295.8,-11595.3,-12033.5,-16391.8,2306.9,5236.7,4023.1,4148.6
-13295.6,-11597,-12033.9,-16391.8,2309.7,5237.1,4024.4,4148.7
-13295.4,-11597.8,-12034.7,-16391.6,2312.1,5236.8,4020.6,4145.1
-13298.2,-11600.4,-12037.4,-16391.8,2315,5237.2,4013.6,4145.5
-13301.3,-11603,-12040.6,-16395.1,2314.8,5236.2,4009.7,4147.6
-13302.6,-11594,-12039.6,-16392.7,2312.8,5233.6,4009.4,4147.6
-13298,-11582.6,-12039.6,-16387.5,2307.5,5235.8,4017.5,4157
-13297.3,-11575.4,-12039.3,-16384.7,2307.5,5244.4,4028.3,4167.5
-13297.1,-11574.2,-12033.2,-16385.6,2307.8,5246,4029.1,4162.7
-13297.2,-11574.2,-12031.5,-16384.6,2310.7,5242.1,4023.5,4153.9
-13295.3,-11573.9,-12031.9,-16383.3,2310.5,5238.1,4016.9,4150.1
-13294.3,-11575.4,-12032.2,-16381.6,2313.1,5238.5,4015.4,4153.6
-13293.1,-11578.4,-12030.9,-16383.5,2312.7,5237.8,4015.4,4153.5
-13292.3,-11577.4,-12030.8,-16382.3,2313,5236.5,4014.6,4149.8
-13293.7,-11575.1,-12033.6,-16381.1,2311,5235.5,4014.6,4150.9
-13296,-11576.2,-12038.6,-16383.2,2311.7,5240.3,4024.2,4159.8
-13296.2,-11575.2,-12036.4,-16384,2313.1,5241.7,4029.3,4158.7
-13299.9,-11570.6,-12034.9,-16380.7,2311.8,5238.8,4024.7,4150.9
-13303.7,-11570.3,-12037.3,-16378.1,2314,5237.2,4020.9,4147.8
-13299.6,-11572.1,-12038.6,-16376.7,2310.3,5231.4,4012.8,4140.6
-13297.4,-11573.8,-12037.9,-16378.5,2305.3,5228.3,4008.3,4139.5
-13300.2,-11577.3,-12038.1,-16382.5,2305.2,5229.9,4012,4145.3
-13300.2,-11578.5,-12038.2,-16383.6,2305.1,5230.3,4012.4,4144.8
-13301.9,-11573.7,-12039.2,-16384.2,2304.1,5224.2,4005.4,4136.2
-13304.2,-11574.4,-12039.2,-16386.9,2303.9,5223.1,4003.5,4141.3
-13303.5,-11577.6,-12039,-16388.9,2302.7,5229.6,4010.8,4151.9
-13302.8,-11576.2,-12039.3,-16386.9,2303,5232,4014.5,4154.9
-13304.9,-11575.5,-12039.3,-16386.5,2306.3,5233.9,4015.3,4154.7
-13304.3,-11576,-12041.3,-16387.5,2306.9,5234.9,4015.5,4152.8
-13303,-11576.7,-12042.3,-16388.3,2306.6,5236.8,4016.1,4154.7
-13303.8,-11578.7,-12042.6,-16391,2306.7,5239.8,4020.2,4157.7
-13305.5,-11579,-12043.9,-16394.4,2304.2,5237.2,4021.6,4153.9
-13308.7,-11577.7,-12045.2,-16392.7,2306.9,5236.4,4021,4150.7
-13306.8,-11578.3,-12047.5,-16393.1,2307.3,5236.4,4020.8,4150.7
-13305.9,-11579.6,-12047.8,-16387.6,2308.8,5234.6,4019.7,4147.7
-13305.9,-11577.1,-12048.4,-16382.3,2310.2,5233.9,4016.3,4147.1
-13306.2,-11578.1,-12045.9,-16382.4,2309,5235.3,4016.4,4150.3
-13305.2,-11578.1,-12042.6,-16384.8,2307.1,5236.9,4017,4155
-13306.2,-11577.7,-12043.9,-16384.2,2308.3,5240.4,4021.7,4160.6
-13307,-11579,-12049.9,-16382.5,2315.1,5249.9,4032.8,4172.3
-13304.8,-11574.9,-12051.7,-16380,2316,5253.4,4034.6,4171.9
-13301.5,-11571.7,-12048.8,-16378.1,2315.5,5250.7,4032,4166.3
-13298.3,-11571.6,-12041.8,-16377.4,2313.9,5247.7,4029.4,4161.7
-13297.4,-11573.1,-12035.8,-16378.8,2314.9,5247.8,4030.1,4162.5
-13298.3,-11572.3,-12034.5,-16378.8,2314.8,5247.4,4027.2,4159.3
-13298.7,-11572.3,-12037.7,-16380.6,2316.9,5245.4,4023,4156.6
-13301.7,-11573.3,-12042.2,-16383.6,2317,5244.4,4021.6,4156.8
-13301.1,-11575.5,-12043.7,-16385.2,2315.1,5244.7,4023.2,4160.4
-13299.4,-11574.7,-12041.7,-16385.4,2314.9,5245.1,4024.4,4161.6
-13302.3,-11572.8,-12042.7,-16383.3,2312.8,5242.4,4021,4157.3
-13302.3,-11571.9,-12041.2,-16381.7,2312.3,5239.1,4016.7,4153.2
-13302.9,-11574.3,-12040,-16382.1,2308,5233.2,4009.7,4145.1
-13304.3,-11576.8,-12039.5,-16385.2,2306.8,5230.2,4007,4142.4
-13305.3,-11579.2,-12042.4,-16388.1,2308.8,5232.1,4009.7,4146.2
-13307.4,-11580.2,-12045.6,-16390.4,2309.2,5233,4012.4,4148.9
-13307.6,-11577.2,-12045.2,-16389.5,2306.7,5228.2,4005.8,4142
-13309.2,-11585.2,-12048.3,-16392.8,2309.6,5230.1,4007.3,4149
-13308.7,-11586.9,-12053.2,-16396.4,2311.8,5236.8,4015.4,4158.5
-13308.2,-11585.7,-12052.3,-16399.3,2314.1,5240.1,4021.4,4161.4
-13308.7,-11586.9,-12051.7,-16398.2,2314.9,5242.5,4024.9,4161.6
-13303.5,-11583.3,-12051.6,-16393.2,2310.2,5243,4022.5,4161.4
-13302.7,-11582.6,-12050.3,-16391.4,2308.2,5242.6,4020.5,4161.2
-13303.4,-11583.5,-12050.1,-16392.3,2306.1,5242.8,4020.9,4162.3
-13305,-11585.1,-12052.2,-16394.6,2300.9,5241.3,4018.3,4159.8
-13305.6,-11587.1,-12051.4,-16392.2,2303.3,5238.5,4015.9,4155.4
-13306.1,-11589.1,-12051,-16390.4,2304,5239.3,4018,4156.9
-13304.3,-11585.5,-12049.6,-16387.8,2305.3,5241.1,4019.2,4158.4
-13303.5,-11584.2,-12046.8,-16387.5,2306.7,5240.3,4017.4,4155.8
-13306.4,-11581.3,-12048.1,-16387.4,2307.7,5240.4,4015.8,4155.9
-13304.9,-11582.7,-12050.2,-16389.5,2308.7,5243.7,4021.4,4161.7
-13300.2,-11579.8,-12051.9,-16386.5,2306.7,5244.6,4021.3,4162.2
-13302.5,-11579.2,-12056.2,-16383.7,2313.4,5249.4,4027.8,4171.2
-13305.3,-11576.4,-12051.1,-16381.5,2314,5250,4029.3,4170.7
-13304.4,-11575.6,-12046.1,-16379,2310.8,5246.6,4025.1,4166.6
-13297.4,-11571.7,-12042.1,-16374.3,2305,5242.1,4016.8,4161.7
-13294.6,-11572,-12044.1,-16373.6,2307.7,5243.4,4017.1,4162.4
-13297,-11572,-12046.4,-16374.2,2310.3,5244.6,4019.4,4163.7
-13296.8,-11571.2,-12043.6,-16373.9,2309.2,5243.4,4017.3,4163.5
-13299,-11571.8,-12043.6,-16374.8,2309,5241.2,4016.3,4162.5
-13299.9,-11577.2,-12048.3,-16378.5,2310.2,5245.3,4024.1,4169.5
-13298.7,-11575.4,-12047.7,-16379.7,2310.6,5248.1,4026.2,4168.9
-13300.2,-11575.2,-12045.8,-16383.5,2312.6,5246.7,4024.8,4165.3
-13301.1,-11575.9,-12047,-16384.2,2313.9,5243.7,4021.3,4161.2
-13299.5,-11577.7,-12046.2,-16381.3,2309.7,5236.8,4013.1,4151.6
-13296.1,-11577.7,-12047.3,-16382.8,2304.7,5232.9,4007.8,4148.1
-13295.9,-11577.4,-12046,-16385.3,2302.3,5232.5,4006.8,4150.8
-13297.9,-11577.5,-12042.1,-16386.3,2298.9,5231.4,4007,4151.4
-13296.1,-11571.6,-12040,-16384,2296.1,5224.1,3999.5,4140.4
-13294.3,-11575.8,-12040.9,-16386.4,2299,5221.7,3997.1,4141.8
-13295.6,-11580,-12042.9,-16386.8,2302.5,5224.3,4001.7,4146.7
-13297.1,-11580,-12045.3,-16385.6,2304.2,5226.7,4005.3,4149.2
-13298.1,-11580.4,-12044.4,-16385.1,2304.8,5228.7,4006.7,4150.3
-13297.5,-11581.2,-12041.9,-16384.9,2302.1,5229.1,4005.6,4150.8
-13296.6,-11582.3,-12039.5,-16386.5,2303,5230.5,4008.9,4152.4
-13296.6,-11579.6,-12039.8,-16387.9,2302.2,5232.5,4010.8,4154.5
-13299.6,-11579.6,-12042.2,-16392.9,2299.6,5231.1,4012.3,4152.6
-13303.3,-11583.9,-12044.7,-16393.8,2305.4,5232.2,4017.8,4151.2
-13301.9,-11583.4,-12044.2,-16392.2,2305.1,5233.4,4017.8,4151.7
-13299.5,-11584.9,-12042.2,-16391.2,2304.7,5233.9,4017.1,4152.7
-13299.4,-11583.9,-12040.2,-16389.4,2309.4,5236.5,4018.2,4152.5
-13300.6,-11583.6,-12039.1,-16390.4,2308.6,5238.4,4019.5,4154.6
-13298.7,-11579.6,-12039.3,-16390.6,2308.8,5237.9,4021,4152.9
-13296.4,-11576.3,-12042.5,-16393,2310.4,5238.6,4022.2,4154.2
-13295.5,-11576.9,-12045.8,-16392,2313.2,5245.9,4028.8,4166.8
-13291.4,-11573,-12046.5,-16387.6,2312.5,5246.2,4029,4164.6
-13289.8,-11573.2,-12045.1,-16385.8,2312.3,5244,4027,4161
-13287.8,-11572,-12040.3,-16384.1,2312.6,5242.4,4024.5,4158.4
-13290,-11574.5,-12037.3,-16386.5,2316.2,5244.2,4026.6,4160.9
-13290.5,-11571.2,-12034.4,-16384.5,2316,5241.9,4023.6,4157.6
-13287.4,-11569.3,-12032.6,-16383.5,2311.7,5238.8,4019.9,4154.6
-13286.5,-11567.9,-12035.2,-16384.3,2308.1,5236.4,4016.1,4152.3
-13289.8,-11570.9,-12038.8,-16389.2,2312,5240.1,4021.9,4157.1
-13291.1,-11574.8,-12035.3,-16390.4,2315.7,5242.8,4027.2,4159
-13290.3,-11572.3,-12035.5,-16385.7,2313.6,5239.8,4022.5,4153.8
-13291,-11570,-12036,-16383.6,2311.3,5235,4015,4149.3
-13292.8,-11573.4,-12036.6,-16384.3,2306.2,5228.4,4008.2,4141.8
-13294.6,-11572.5,-12037.1,-16384.6,2305.3,5226.3,4003.9,4137.9
-13297.8,-11575.8,-12039,-16386.9,2305.2,5228.3,4005.6,4142.7
-13301.9,-11578.8,-12041.3,-16388.6,2306.1,5230,4008.3,4144.3
-13309.3,-11576.6,-12045.7,-16390.5,2307.9,5225.9,4003.6,4135.6
-13315.5,-11581.3,-12051.2,-16392.2,2313.1,5225.3,3999.4,4139
-13319.1,-11590.4,-12053.2,-16394,2314.4,5228.2,4000.6,4146.7
-13316.8,-11598.3,-12048.5,-16397.2,2315.1,5231.3,4007.3,4151.8
-13309.1,-11600.6,-12041.6,-16400.1,2313.3,5234.7,4015.6,4156.8
-13294.1,-11596.4,-12031.2,-16400,2305,5235.5,4021.8,4159.1
-13288.5,-11588.8,-12025.4,-16398.5,2300.2,5235.4,4024.6,4156.9
-13287.9,-11579.4,-12032.9,-16395.5,2299.4,5235.5,4023.4,4151.7
-13288,-11580.2,-12041.3,-16398.9,2297.9,5233,4018.7,4144.6
-13289.7,-11586.6,-12039.2,-16399.7,2302.9,5232.3,4014.4,4141.9
-13290.5,-11589.1,-12037.6,-16399.3,2303.7,5233.5,4013.8,4143.7
-13288.1,-11589,-12035.1,-16398.7,2304.6,5233.3,4014.7,4144
-13284.4,-11587.2,-12031.7,-16397.8,2305.8,5232,4012.5,4141.4
-13287.2,-11586.9,-12033.5,-16397.8,2306.7,5232.1,4011.5,4141.3
-13286.9,-11590.2,-12036.6,-16398.3,2309,5233.3,4015.7,4146.1
-13285.2,-11590.8,-12036.6,-16396.7,2307.9,5235.2,4019.9,4149.5
-13290.5,-11588.2,-12038.1,-16394.2,2315.5,5242.6,4026.8,4158.4
-13293.3,-11586.8,-12036.7,-16394.8,2318.2,5245.4,4030,4158.3
-13290.8,-11584.6,-12034.4,-16395.9,2317.4,5243.7,4026.8,4153.4
-13285.7,-11587.1,-12032,-16397.8,2316,5242.4,4024.8,4152.4
-13283.7,-11591.5,-12030.4,-16396.2,2316.3,5244.7,4026.3,4157.6
-13282.5,-11588.7,-12030.2,-16393.2,2313.8,5245,4026.2,4157.2
-13280.3,-11583.9,-12027.8,-16391.3,2312.8,5242.6,4024.7,4152.1
-13281.3,-11584,-12028.8,-16391.9,2313.3,5241.5,4025.7,4151.1
-13283.2,-11588.3,-12032.6,-16394.2,2312.9,5245,4031.1,4158.8
-13284,-11586.7,-12034.5,-16394.9,2314.5,5246.9,4032,4157.4
-13284.6,-11582.5,-12035.3,-16394.5,2314.7,5245.1,4028.7,4152.7
-13281.9,-11582.7,-12031.8,-16392.6,2312.3,5243.4,4027.2,4152.9
-13280,-11586.7,-12030.3,-16389.2,2306.1,5238.1,4022,4147.2
-13279.1,-11585.5,-12031.1,-16388.3,2302.2,5236.1,4017.4,4143.2
-13280.7,-11585.1,-12034.7,-16389.7,2303.9,5237.2,4019.1,4147.5
-13279.3,-11583,-12033.2,-16388.9,2301.6,5235.6,4018.4,4147.4
-13278.3,-11579,-12027.1,-16388.8,2300,5228.4,4012,4138.7
-13283.8,-11584.2,-12028.3,-16391.4,2305.1,5227.7,4013,4141.6
-13286.8,-11587.8,-12028.9,-16391.8,2308.6,5232.1,4018.7,4147.2
-13286.4,-11590.1,-12026.5,-16393.7,2309.3,5235.8,4023.4,4151.4
-13286.9,-11591.3,-12024.1,-16395.3,2312.3,5238.3,4026.8,4152
-13283,-11589.2,-12023.3,-16393.5,2306.7,5238.2,4024.3,4152.3
-13281,-11587,-12025.2,-16392.3,2304,5238.1,4022.4,4153
-13284.3,-11586.3,-12028.1,-16398,2305.9,5238.8,4024.1,4155.1
-13284.2,-11585.8,-12028.1,-16403.4,2302.6,5236.1,4021.8,4153.3
-13283.4,-11591.2,-12028.2,-16400.9,2306.9,5235.5,4023.8,4152.2
-13282.7,-11593.3,-12030.7,-16396.9,2309.6,5236.2,4026.2,4151.2
-13281,-11591.2,-12033.6,-16394.1,2312.3,5238.8,4027.5,4151.9
-13280.8,-11589.1,-12029.9,-16393.3,2314.8,5239.6,4027.7,4153.4
-13283.6,-11590.4,-12027.1,-16395.8,2317,5241.5,4032.1,4155.2
-13285.2,-11590.7,-12026.7,-16396.5,2315.8,5244.5,4035.1,4157.9
-13283.6,-11586.4,-12025.3,-16392.6,2309.2,5243.7,4031.8,4160.1
-13284.4,-11583,-12025.4,-16387.9,2312.7,5246.6,4033.8,4166.3
-13284.3,-11581.5,-12023.2,-16386.8,2315.9,5248.7,4036.5,4167.6
-13279.6,-11580.8,-12022.1,-16387.4,2314.8,5248.9,4037.5,4167
-13278.1,-11579.7,-12018,-16387.3,2313.9,5247.9,4033.7,4166.4
-13276.8,-11581.6,-12014.7,-16386.4,2314.5,5250.4,4034.5,4170.8
-13278.6,-11581.5,-12017.2,-16384.8,2317.4,5252.9,4036.2,4167.9
-13279.6,-11580.9,-12020.2,-16387.5,2319.8,5254.7,4037.5,4169.3
-13279.6,-11581.9,-12021.4,-16390.4,2321.7,5255.8,4039.7,4170.1
-13279.9,-11585.7,-12022.5,-16392.3,2323.7,5259.3,4047.1,4174.9
-13279.5,-11585.5,-12020.1,-16392.4,2324.2,5261.8,4049.2,4176.3
-13279.8,-11582.6,-12020.1,-16392.2,2324.6,5260.4,4047.6,4170.7
-13279.5,-11579.5,-12021,-16392.8,2325,5257.3,4044.1,4165.9
-13278,-11576.8,-12020.9,-16393.3,2317.1,5251,4033.1,4157
-13278,-11574.9,-12019.8,-16390.9,2313.6,5244.4,4023.8,4149.7
-13282,-11577.8,-12022.4,-16388.5,2316.2,5242.3,4021.6,4148.9
-13282.7,-11581.2,-12023.9,-16389.1,2317.2,5241.4,4020.5,4148.2
-13285.5,-11574.8,-12018.2,-16389,2312.4,5233.8,4011,4137.7
-13290.4,-11575.7,-12021.5,-16391.1,2313.6,5232.4,4007.6,4140.8
-13289.6,-11580.8,-12025,-16393.5,2311.3,5236.2,4011.1,4149.1
-13290.2,-11585.1,-12025.7,-16395.2,2310.3,5239.3,4014.3,4152.3
-13291.7,-11584.8,-12027.5,-16393.7,2314,5240.8,4015.2,4150.8
-13292.6,-11585.2,-12030.2,-16394.5,2313.6,5241.5,4015.8,4152.7
-13290.5,-11583.9,-12029.6,-16394.9,2311.1,5241,4016.9,4154.4
-13290.4,-11582,-12027.7,-16395.9,2308.4,5238.2,4015.9,4152.6
-13292.2,-11583.5,-12027.5,-16400,2302,5235,4013.3,4148.8
-13294.7,-11584.7,-12027.8,-16396.6,2300.8,5231.5,4007.5,4145.1
-13295.1,-11588.9,-12029.7,-16397.6,2304.1,5233.5,4010.9,4149.1
-13294.6,-11589.3,-12029.7,-16397.8,2304.2,5235.3,4014.3,4151
-13292.2,-11584,-12028.8,-16394,2305.5,5233.6,4010.6,4146.4
-13292.5,-11580.6,-12030.2,-16393.1,2304.6,5232.3,4008.1,4145.4
-13293.8,-11580.8,-12031.7,-16393.2,2302.2,5233.8,4009.5,4147.6
-13292.6,-11583.4,-12033.5,-16393.6,2304.2,5237.2,4012.9,4151.4
-13294.3,-11584.3,-12038.5,-16394.2,2311.8,5245.7,4022.6,4161.2
-13294.6,-11581.4,-12038.8,-16396.9,2312.5,5247.5,4025.4,4159.8
-13292.4,-11578.4,-12033.2,-16395.6,2311.3,5244.2,4021.5,4153.9
-13293.3,-11579.6,-12030.1,-16393.6,2309.4,5242.1,4018.5,4153.1
-13290.3,-11579.9,-12028.5,-16391,2310.4,5243,4018.9,4155.9
-13286.1,-11580.2,-12027.2,-16391.2,2309.8,5241.2,4016.9,4154
-13286.1,-11581.1,-12024.5,-16392.1,2309.1,5238.4,4013.7,4151.3
-13292.3,-11582.1,-12026.3,-16393,2311.1,5237.9,4014.4,4152.4
-13295.1,-11583,-12032,-16395.1,2314.3,5240.8,4021.1,4158.9
-13296,-11582,-12032,-16397.6,2316.5,5242.1,4023.9,4158.2
-13297.6,-11580.9,-12032.6,-16396.9,2318.1,5241.1,4023.5,4155.3
-13293.7,-11580.6,-12035.1,-16396,2316.6,5240,4021.7,4153.4
-13291.6,-11583.9,-12033,-16396.7,2312.5,5233.8,4017.1,4144.6
-13291.8,-11586.4,-12030.2,-16397.3,2312.9,5231.1,4015.2,4140.4
-13293.5,-11587.3,-12029.5,-16397,2314.6,5232,4016.9,4141.7
-13293.2,-11582.7,-12027.8,-16397.2,2312.4,5229.9,4013.6,4139.4
-13292.6,-11579.2,-12027.9,-16397.1,2310.3,5222.3,4005.6,4131
-13294.3,-11583.7,-12032.4,-16396.9,2314.3,5222.3,4005,4134.5
-13296,-11588.8,-12035.3,-16398.4,2316.4,5226.7,4009.7,4143
-13295.1,-11587.5,-12037.7,-16398.7,2312.9,5228.9,4009.4,4146.2
-13295.6,-11585.9,-12037,-16397.1,2314.5,5228.8,4009.4,4147.6
-13295.9,-11589.2,-12035.5,-16399.1,2313.6,5230,4010.5,4151.8
-13295,-11591.3,-12033.9,-16401.3,2317,5230.7,4013.6,4150.1
-13296.2,-11590.9,-12035,-16404.2,2323.1,5231.4,4017.8,4146.9
-13300,-11592.1,-12039.2,-16408.7,2322.3,5231.2,4018.9,4146.8
-13301.3,-11593.8,-12038.9,-16408.5,2320.3,5232,4015.7,4148.6
-13299.2,-11593.5,-12037,-16410,2323.3,5233.4,4016.9,4148.2
-13301.6,-11595.2,-12040.3,-16408.3,2331,5235.4,4020.2,4146.5
-13301.4,-11594,-12038.8,-16404.6,2334.6,5234.5,4019,4145.8
-13299.8,-11592.5,-12038.1,-16402.7,2334.3,5234.3,4019.4,4149
-13298.7,-11595.1,-12037.8,-16403.3,2337.6,5237.7,4024.7,4153.1
-13302.5,-11596.4,-12039.1,-16403.6,2345.9,5244.1,4033.1,4158.6
-13308.3,-11595.4,-12040.6,-16402,2353.1,5254,4044.3,4169.5
-13305.7,-11588.6,-12036.2,-16396.6,2345.2,5255.2,4041.2,4167.2
-13298.7,-11584.3,-12034.9,-16394.9,2343.5,5250.4,4033.9,4160.1
-13295.2,-11581.5,-12031.4,-16392.2,2344.7,5245.7,4027.1,4152.8
-13294.1,-11582.8,-12028.6,-16390.1,2343.4,5244.6,4024.7,4155.4
-13295.7,-11579.4,-12028.3,-16390,2344.5,5245.3,4024.7,4155.8
-13296.6,-11577.8,-12029.1,-16392.1,2348.5,5243.8,4024.7,4152.9
-13297.3,-11581.2,-12029.8,-16395.1,2354.4,5244.1,4029.6,4152.6
-13300.7,-11587.5,-12032.7,-16398.1,2356.7,5248.2,4038.6,4159.7
-13298.9,-11585.3,-12030.3,-16395.9,2353.3,5247.8,4034.2,4157.5
-13296.4,-11580,-12026.9,-16393,2348.7,5244,4025,4151.6
-13298.7,-11583.2,-12026,-16394.5,2350.7,5242.8,4025.1,4151
-13299.6,-11586.1,-12024.8,-16394.3,2345.7,5236.2,4018.3,4142.2
-13299.9,-11582.8,-12026.3,-16395.1,2344.4,5233.2,4012.4,4136.5
-13303.6,-11587.4,-12031.7,-16399.4,2348.6,5236,4016,4142.8
-13303.2,-11588.9,-12032.8,-16396.9,2346,5236.3,4017.4,4145.5
-13302.9,-11580.6,-12033.1,-16391.2,2340.3,5230.6,4007.7,4136.5
-13306.4,-11582.2,-12034.8,-16391.8,2344.3,5230,4008,4141.6
-13303.4,-11589.6,-12034.9,-16394.8,2346.7,5232.8,4017.3,4148.8
-13302.5,-11591,-12036.4,-16394.4,2348.3,5235.6,4021.5,4150.5
-13305.5,-11590.7,-12037.6,-16393.3,2352.6,5239.1,4025,4152.7
-13305.1,-11589.3,-12037,-16392.6,2352.6,5241.7,4026.8,4154.8
-13301.7,-11588.4,-12034.3,-16392,2350.7,5241.2,4025.7,4152
-13301.5,-11585.2,-12033.9,-16391.4,2348.8,5239.4,4022.2,4149.2
-13304.3,-11589.9,-12037.8,-16397.5,2345.6,5238.6,4023.1,4152.4
-13302.3,-11592.3,-12036.3,-16396.8,2350.2,5238.2,4022.2,4149.3
-13302.3,-11594,-12034.7,-16396.5,2352.7,5238.6,4023.8,4150.3
-13302.9,-11592.5,-12033.9,-16394.5,2356.4,5239.9,4024.9,4150.9
-13304.7,-11590.3,-12031.1,-16392.3,2359.9,5239.7,4022.1,4150.7
-13307.5,-11589.7,-12032.4,-16391.9,2360.9,5240.7,4021.7,4150.5
-13304.4,-11590.8,-12035.3,-16392,2364.6,5241,4024.2,4149.9
-13305.3,-11590.8,-12039.1,-16392.4,2369.8,5243.3,4028.3,4153.7
-13307,-11588.7,-12041.9,-16389.9,2376.7,5248.5,4036.9,4163.2
-13306.5,-11585.2,-12039.1,-16386.9,2377,5248.6,4039.5,4161.1
-13305.1,-11584.8,-12038.3,-16385.6,2379.1,5246.6,4039.2,4156.1
-13302.6,-11583.2,-12035.1,-16384.2,2378.5,5245.1,4035,4153.7
-13300.5,-11581.2,-12030.9,-16381.7,2374,5244.5,4028.8,4155.9
-13298.8,-11578.9,-12032.2,-16380.1,2374.4,5244.6,4027.3,4156.2
-13298.5,-11577.4,-12032.8,-16378.6,2372.2,5241.2,4022.5,4151.8
-13299.4,-11576.2,-12033.4,-16379.3,2369.5,5239.7,4017.9,4149.8
-13300,-11579.6,-12037,-16385.1,2372.1,5243.9,4023.1,4156.9
-13301.7,-11581.3,-12037.3,-16386.1,2375.9,5244.6,4025.4,4156.2
-13302.8,-11582.5,-12037.3,-16384.9,2378.5,5243,4024.9,4152.7
-13302.8,-11582.6,-12036.8,-16382,2376.6,5239.9,4021.4,4149.9
-13299.8,-11581.9,-12034.3,-16378.8,2368.3,5232.9,4011.5,4141.3
-13301,-11588.2,-12034.8,-16383.2,2368.4,5230.3,4008,4138.3
-13308.6,-11596,-12040.4,-16387.9,2373.1,5231.5,4008.1,4140
-13313.8,-11601.9,-12044.1,-16391.6,2377,5230,4005.8,4138.9
-13313.5,-11596.4,-12042.4,-16390.4,2375.5,5221.7,3996.3,4128.8
-13318.3,-11591.6,-12043.6,-16390,2376,5220.5,3999.9,4136.3
-13315.7,-11585.4,-12042,-16387.2,2371.4,5224.3,4012,4146.8
-13309.3,-11580.1,-12039.6,-16383.7,2368.4,5227.7,4018.8,4148
-13308.2,-11580,-12039.3,-16384.6,2372.8,5229.7,4022.3,4145.8
-13309.5,-11586.3,-12041.1,-16387.7,2380.7,5231.8,4025.2,4144.3
-13308.9,-11588.5,-12039.8,-16387.7,2383.8,5232.9,4025.8,4144.5
-13307.7,-11578.7,-12038.4,-16383,2374,5231.8,4020,4144.3
-13311.6,-11576.8,-12041.3,-16385.3,2369.5,5231.6,4021.1,4146.6
-13313.7,-11578.6,-12043.4,-16383,2371.3,5230.9,4020.4,4143.8
-13309.9,-11573.6,-12043.5,-16379.6,2367.3,5229.6,4015.1,4141.2
-13306.1,-11565.5,-12040.9,-16375.3,2360.8,5227.3,4008.9,4140.5
-13305.4,-11566.8,-12037.7,-16375,2367.6,5228.9,4012.7,4142.1
-13309.3,-11566.5,-12037.8,-16375.1,2369.3,5230.4,4014.7,4144.3
-13313.7,-11565.6,-12041.7,-16375.8,2373.5,5231.5,4017.8,4146.1
-13313.3,-11565.8,-12044.1,-16375.2,2376.8,5235.4,4022.1,4151
-13314.8,-11566.6,-12045.6,-16374.6,2382.8,5243.8,4030.8,4160.9
-13310.5,-11561.6,-12043,-16373.1,2379.2,5244,4028.1,4156.8
-13307.1,-11558.7,-12040.1,-16373.4,2378,5240.5,4023.4,4151.5
-13304.8,-11558,-12036.5,-16372.8,2378.2,5238.8,4022.7,4150.3
-13301.4,-11560.2,-12034,-16372.8,2382.1,5240.5,4026.6,4153.6
-13300,-11561.4,-12032.3,-16373.5,2382.9,5240.5,4025.8,4152.7
-13303.5,-11561.4,-12034.7,-16374.5,2385.6,5239.9,4024,4150.6
-13307.1,-11563.1,-12040,-16376.4,2388.2,5241.4,4026.4,4151.8
-13308.7,-11567.3,-12047.4,-16378.1,2388,5244.6,4032.1,4156.8
-13307.4,-11565.1,-12046.5,-16375.7,2387.9,5244.3,4029.7,4154.7
-13306.4,-11563.8,-12041.8,-16376,2385.1,5240.7,4024.6,4150.4
-13308.4,-11563.8,-12040.2,-16375.3,2384.4,5239.4,4022.2,4148
-13308.7,-11562.7,-12040.5,-16371,2377.8,5234.8,4014.6,4141.8
-13308.5,-11563.4,-12042,-16371.2,2378.8,5233.3,4014.2,4141.6
-13310.4,-11567.5,-12043.9,-16374.8,2381.9,5235.6,4019.8,4145.1
-13310.2,-11565.8,-12044,-16374.2,2378.3,5235.2,4018.2,4143.8
-13310.5,-11557.3,-12043.6,-16370.2,2374.2,5229,4010.1,4134.4
-13310.1,-11559.9,-12044.1,-16370.7,2375.7,5228,4007.6,4136.1
-13312.2,-11566.1,-12044.8,-16371.9,2379.7,5231,4012.8,4140.5
-13316,-11565.4,-12047.1,-16371.8,2383.5,5233.7,4017.4,4144.5
-13314,-11566.5,-12047.2,-16373,2381.8,5238,4020.7,4153.4
-13313.4,-11570.8,-12046.4,-16372.4,2380,5240.1,4021.9,4155.5
-13310.5,-11569.6,-12043.9,-16371.2,2378.6,5237.8,4019.2,4146.4
-13311.5,-11567.1,-12042,-16371.8,2377.4,5235.8,4015.9,4142
-13313.4,-11570.1,-12044.8,-16377.1,2374.3,5233.5,4014,4140.1
-13313.2,-11571.7,-12045.1,-16377.7,2377.7,5232.8,4012.7,4138.7
-13316.8,-11573.4,-12045.4,-16378.4,2380.4,5233.8,4015.2,4139.4
-13315.3,-11570.9,-12049.7,-16376.6,2383.6,5234.7,4017.6,4140
-13311.5,-11571.9,-12047.9,-16376.4,2385.4,5236.8,4022.1,4144
-13312.6,-11568.7,-12047.6,-16375.1,2381.7,5237.5,4021.3,4144
-13312.2,-11565.5,-12049.2,-16376.1,2383.2,5238.5,4022.9,4145.1
-13311.8,-11565.2,-12047.2,-16377.9,2387.4,5239.8,4026.5,4147
-13313.9,-11567.9,-12045.2,-16376.5,2394.6,5247.6,4036.1,4157.9
-13311.9,-11569.1,-12042.5,-16374.7,2395.4,5252,4044.1,4162.4
-13308.4,-11565.3,-12039.7,-16369.8,2393.6,5251.2,4043.3,4158.2
-13308.4,-11562.6,-12038.5,-16367.1,2395.7,5250.8,4041.4,4155.2
-13305.2,-11563.4,-12036.6,-16366.4,2398.3,5253.1,4043,4158.9
-13302.7,-11562.4,-12035.6,-16366.8,2398.1,5254,4042.8,4158.7
-13303.2,-11561.3,-12035.9,-16366.9,2400.2,5253.2,4041.8,4156.1
-13306,-11563.2,-12039.1,-16367.1,2402,5252.8,4041.8,4156.2
-13308.5,-11567.1,-12043,-16368.2,2401.6,5256.3,4044.8,4163.2
-13309.3,-11565,-12041.5,-16366.9,2400.7,5256.9,4042.2,4163.6
-13308.3,-11559.8,-12041.1,-16364.9,2396.8,5253.4,4034.7,4157.1
-13308.4,-11556.1,-12042.3,-16363.4,2393.3,5249.2,4024.8,4152.2
-13306.8,-11558.3,-12040.9,-16364.6,2387.8,5240.3,4015.2,4144.4
-13304,-11561.1,-12037.9,-16366.3,2382.3,5236.4,4009.7,4141.7
-13305.1,-11561.2,-12038.1,-16367.4,2383.2,5236.8,4010.2,4142.7
-13307.7,-11561.9,-12038.1,-16367.7,2382.3,5237.5,4012.2,4142.2
-13307.6,-11558.2,-12035.2,-16366.9,2377.9,5230.9,4004.9,4132.8
-13309.6,-11563.7,-12036,-16369.7,2382.6,5228.2,4004.8,4134.9
-13311.3,-11567.9,-12038.5,-16371.6,2385.2,5229.9,4008.6,4137.9
-13310.2,-11567.3,-12039.6,-16373,2387.2,5232.8,4012,4140.3
-13310.8,-11565.9,-12038.8,-16374.4,2388.3,5235,4014.5,4141.6
-13312.5,-11566.3,-12037.3,-16375.2,2387.2,5237,4017.4,4144.2
-13310,-11564.4,-12038.1,-16374.9,2384.7,5237.2,4016.9,4144.1
-13313.3,-11562.8,-12040.1,-16378.6,2383.1,5236.7,4016.7,4143.6
-13313.6,-11566.5,-12040.8,-16381.6,2379.7,5234.9,4015.3,4141.8
-13313.1,-11570.1,-12041.8,-16377.1,2380.5,5233.2,4012.1,4139.5
-13316,-11572.6,-12043.4,-16375.9,2382.9,5233.6,4013.5,4141.9
-13315.4,-11571.4,-12042.1,-16378.6,2384,5234.1,4013.1,4142.9
-13312.3,-11566.3,-12040.6,-16377.5,2384.9,5233.1,4010.2,4141.3
-13313.7,-11567.3,-12041.8,-16376.3,2385.8,5234.4,4012.8,4142.3
-13314.1,-11566.7,-12043,-16374.7,2383.7,5236,4012.9,4143.4
-13317.3,-11566.3,-12045.5,-16373.9,2383.9,5239,4015.1,4148.6
-13321,-11569.2,-12048.3,-16374.3,2392.8,5247,4026.1,4159.5
-13316.4,-11566.7,-12045.7,-16373,2394.6,5247.4,4028.7,4156.6
-13313.9,-11565.6,-12044.5,-16371.9,2392.9,5245.8,4027.4,4154.4
-13312,-11562.3,-12044.2,-16368.5,2392.5,5244,4024.2,4152.4
-13313.8,-11561.8,-12042.8,-16366.3,2395,5246,4025.3,4155.3
-13312.1,-11562.5,-12040.1,-16366,2391.2,5246.2,4025.2,4156.2
-13308.4,-11560.3,-12037.5,-16365.6,2390.1,5246.5,4026.1,4154.2
-13309,-11558.7,-12040.5,-16367.1,2387.7,5246.6,4025.7,4153
-13310.9,-11565.3,-12045.1,-16370,2390.7,5250,4031.7,4158.7
-13309.8,-11565.8,-12041.9,-16369.4,2392.2,5250.3,4032.8,4157.5
-13309.7,-11563,-12041.7,-16368.1,2393.6,5247.2,4028.5,4151.9
-13308.2,-11561,-12040.3,-16367.2,2391.3,5242.7,4021.4,4146.5
-13307.5,-11563,-12039.5,-16365.8,2386.7,5235.5,4013.1,4138.7
-13309.4,-11564.3,-12041.6,-16365.7,2386.3,5232,4009.3,4135.5
-13309.9,-11565.8,-12043.2,-16367.7,2388.6,5232.3,4011.2,4136.1
-13309.6,-11565.2,-12042.7,-16369,2387.9,5230.4,4011.7,4135
-13308,-11553.6,-12037.3,-16366.2,2374.6,5219.2,3993.5,4122.7
-13315.5,-11559.3,-12036.9,-16369,2377.8,5217.8,3991.2,4128
-13314.6,-11568.2,-12039.9,-16369.3,2383,5222.7,3999.4,4136.6
-13313.5,-11571.7,-12043.5,-16369,2383.1,5226.6,4005.4,4141.9
-13311.8,-11570.6,-12045.3,-16367.4,2382.6,5229.5,4008.4,4144.4
-13312.1,-11570.6,-12045.7,-16367.4,2383.9,5231.5,4010.7,4145.7
-13312.2,-11572,-12045.6,-16367.9,2386.9,5233.5,4014.2,4145.5
-13312.9,-11574.7,-12048.1,-16370.4,2387,5235.9,4018.5,4146.8
-13312.7,-11574.9,-12051.5,-16372.6,2381.3,5235,4018.4,4144
-13313.4,-11573.4,-12049.6,-16370.5,2384.1,5233.6,4017,4142.2
-13313.7,-11575.4,-12047,-16372,2386.1,5235.5,4020.2,4146.6
-13315.3,-11575.7,-12047.5,-16371.6,2388.3,5237.5,4022.3,4145.5
-13316.5,-11572.9,-12046.3,-16369.3,2392.2,5237,4020,4142.4
-13314.7,-11572.5,-12048.1,-16368.9,2392.1,5236.2,4019.5,4142.8
-13311.8,-11570.8,-12050.6,-16367.6,2390.9,5234.4,4018,4141.4
-13309.9,-11564.6,-12053,-16362.5,2386.9,5232.8,4012.5,4142.4
-13312.4,-11563,-12054.5,-16359.5,2389.5,5239.5,4017,4153.9
-13311,-11562.3,-12050.1,-16360.8,2391.7,5241.2,4021.6,4154.3
-13309.1,-11560.5,-12046.5,-16361,2392.2,5238.5,4020.7,4149
-13309.8,-11562.3,-12045.8,-16362,2392,5238.2,4021.3,4149.4
-13308.2,-11562.7,-12045.3,-16360.2,2392.5,5240.3,4022.6,4153.6
-13307.2,-11563.9,-12044.8,-16360.4,2394.2,5242.5,4025.7,4154.6
-13307.6,-11564.1,-12045.3,-16362.7,2395.4,5243.7,4025.5,4151.6
-13313,-11566.2,-12049.6,-16366.9,2398.3,5244.1,4024.7,4151.3
-13321,-11572.9,-12060.3,-16366.5,2404.6,5247.5,4028.1,4155.2
-13326.6,-11578.5,-12064.7,-16366.8,2408.6,5249.4,4028.1,4155.3
-13326.3,-11575.9,-12062,-16367.1,2406.9,5245.6,4020.5,4150.9
-13321.4,-11573.4,-12054.9,-16368.6,2401.2,5239.6,4016,4149.5
-13312.4,-11572.2,-12045.7,-16369.7,2388.6,5231.2,4010.2,4142.2
-13309.7,-11566.4,-12039.9,-16367.7,2382.6,5228.7,4008.8,4138.5
-13310,-11561.8,-12038.3,-16365.2,2380.3,5229.5,4011,4139.5
-13309.7,-11558.1,-12038.5,-16363.2,2378.6,5229.3,4011.8,4137.8
-13306.5,-11551.6,-12039.9,-16361.3,2375.9,5223,4004.5,4127.3
-13308.5,-11557.4,-12042.8,-16362.8,2378.4,5221.8,4001.5,4130.3
-13311.1,-11564.9,-12044.3,-16363.5,2380,5226,4004.9,4138.2
-13308.8,-11561.2,-12040.9,-16361.8,2379,5226,4004.6,4138.2
-13310.3,-11559.7,-12038.9,-16363.7,2380.8,5228.4,4009.8,4141.8
-13310.5,-11557.7,-12038.6,-16363.8,2381.8,5230.7,4014.7,4144.2
-13309.5,-11558,-12039.9,-16365.1,2382.6,5232.5,4017.2,4144.6
-13307.8,-11561.5,-12041.4,-16369.7,2383.6,5234,4019,4143.9
-13308.4,-11564.3,-12041.5,-16375.1,2382.5,5232.6,4018.6,4141.9
-13312.5,-11565.9,-12044.1,-16374.3,2389.7,5235,4022.1,4144
-13312.9,-11567.7,-12046,-16373.6,2394.3,5237.9,4026.7,4146.6
-13311.9,-11567.6,-12045.3,-16372.1,2397.5,5238.3,4027.3,4144.6
-13311.3,-11563.6,-12045.7,-16367.9,2394.1,5237.2,4020.1,4142.6
-13311.3,-11559.7,-12049.3,-16365.6,2389.7,5235,4013.2,4142.1
-13309.3,-11556.4,-12045.3,-16365.1,2384.9,5232.7,4009.2,4141.7
-13310.6,-11556,-12045.2,-16364.9,2384.5,5233.2,4010.2,4146
-13312.4,-11560.2,-12048.7,-16364.4,2390.1,5240.3,4019.4,4158.4
-13308,-11558.9,-12046,-16363.8,2390.3,5242,4021.6,4156.4
-13307.4,-11556.4,-12044.2,-16364.1,2391.5,5240.5,4018.9,4151.7
-13310.4,-11556,-12043.2,-16366.5,2395.1,5239.5,4018.5,4149.8
-13308.5,-11557.4,-12040.5,-16370.5,2397.3,5241.6,4022.1,4153.5
-13304.2,-11558.9,-12037.3,-16370.5,2393.5,5243.1,4022.1,4153.9
-13302.9,-11561.7,-12035.1,-16370,2393.8,5243.1,4021.9,4152.7
-13301.7,-11564.9,-12037.2,-16369.7,2396.5,5242.9,4024.8,4153.8
-13301.2,-11567.2,-12042.6,-16372.1,2396.9,5247.5,4033,4163.4
-13299.8,-11560.4,-12041.6,-16370.1,2389,5249.5,4029.5,4164.5
-13300.9,-11558.5,-12040.3,-16371,2392.7,5248,4028,4157.2
-13304.1,-11563,-12040.9,-16371.2,2397.3,5246.2,4027.5,4152.7
-13305.9,-11563.3,-12040.1,-16367.5,2391,5236.7,4015.6,4141.1
-13304.6,-11559.8,-12039.7,-16366.4,2390.7,5229.4,4006.9,4133.1
-13301.5,-11562.7,-12040.7,-16368.4,2386.8,5228.2,4006.6,4137.7
-13300.3,-11559.5,-12040.3,-16367.9,2382.6,5225.8,4002.9,4136.5
-13301.9,-11558,-12039.3,-16369,2381.1,5219.8,3997,4128
-13302.3,-11563.1,-12039.6,-16372.8,2385.8,5218,3997.3,4128.9
-13304.2,-11566.6,-12042.6,-16375.3,2387.4,5222.9,4003.6,4136.4
-13304.7,-11569.6,-12045,-16374.6,2388.7,5228.2,4010.9,4142.2
-13302.4,-11571.7,-12046.5,-16374.9,2391.1,5232.1,4017.7,4144
-13300.8,-11571,-12048.2,-16376.1,2392.9,5235.5,4022.1,4144
-13299.5,-11569.6,-12048.2,-16376.3,2394.1,5236.9,4023.1,4144.2
-13300,-11568.9,-12051.3,-16378.1,2395.2,5237.7,4024.9,4144.3
-13302.3,-11571.9,-12053.4,-16384.7,2391.8,5237.2,4026.7,4145.4
-13302.3,-11575.2,-12050.5,-16386.3,2394.7,5238.7,4029.6,4146.9
-13302.8,-11577.1,-12048,-16386.7,2394.8,5240.7,4033.1,4147.1
-13300.8,-11571.9,-12048.3,-16384.4,2395.1,5241.1,4031,4145.2
-13300.9,-11568.7,-12050.3,-16384.4,2401.5,5244.3,4032.2,4147.9
-13303.4,-11571.7,-12050.7,-16384.3,2401.4,5246.7,4035.8,4153.8
-13307.3,-11572.6,-12050.1,-16381,2401.3,5249.7,4040.5,4157.7
-13304.7,-11569.6,-12050.4,-16375.7,2403.5,5251.9,4043.3,4160
-13303.7,-11570.5,-12052.1,-16374,2411.1,5259,4052.8,4172.1
-13299.6,-11565.7,-12049.6,-16371.3,2409.7,5259.4,4052.7,4168.4
-13293.8,-11556.9,-12045.8,-16365.8,2403.6,5254.9,4041.4,4159.8
-13290.9,-11556.1,-12042.4,-16364.1,2402.1,5252.6,4038,4158.8
-13290.3,-11559.5,-12041,-16365.7,2406.2,5254.2,4041.4,4163.2
-13288.8,-11557,-12039.4,-16366.6,2408,5254.1,4039.4,4160.8
-13288.4,-11555.6,-12037.5,-16365.7,2409.2,5251.2,4037,4157.5
-13291.3,-11557.8,-12038.3,-16366.2,2410.8,5249.5,4037.6,4158.1
-13291,-11562.5,-12039.9,-16368.3,2411.5,5250.3,4043.3,4159.8
-13287.7,-11561.8,-12038.4,-16367.9,2413.1,5249.7,4041.5,4155.4
-13289.1,-11561.2,-12037.6,-16368.2,2414.7,5247.9,4040,4152.9
-13286.4,-11559.6,-12035.4,-16366.3,2408.8,5245,4033.5,4151.4
-13282.8,-11558.9,-12034.5,-16364.4,2399.8,5237.7,4022.7,4143
-13283.3,-11559,-12036.2,-16366.2,2398.9,5235.3,4018.1,4141.1
-13285.4,-11561.5,-12036.6,-16368.2,2399.3,5236,4019.1,4144.8
-13286.9,-11560.7,-12037.1,-16369,2401,5235.3,4021.2,4144.2
-13288.1,-11554.4,-12037.5,-16369,2398.8,5228.7,4013.8,4133.9
-13290.9,-11555.7,-12038.7,-16370.2,2402.7,5227.2,4011.5,4136.3
-13294,-11561.1,-12041.5,-16371.5,2403.5,5232.5,4018.4,4146.4
-13291.8,-11561.2,-12041.7,-16371.2,2402.9,5235.8,4021.3,4148.8
-13287.1,-11558.4,-12038.3,-16372.2,2398.7,5236.2,4018.1,4148.5
-13286.2,-11559.6,-12038.1,-16372.5,2396,5235.8,4016.6,4148.2
-13285.9,-11558.4,-12039.6,-16369,2393.7,5236,4014.6,4147.4
-13288,-11558.2,-12043.2,-16368,2392.7,5235,4014,4146.5
-13291.1,-11557.9,-12048.4,-16371,2390.4,5232.4,4012,4142.5
-13292.6,-11560,-12046.1,-16372.7,2391.7,5231.5,4009.7,4141.1
-13292.4,-11563,-12044.1,-16374.6,2392,5231.6,4009.7,4141.5
-13291.3,-11563.7,-12047.4,-16376,2393.2,5232.6,4010.2,4141.2
-13291.3,-11561.3,-12048.3,-16374.1,2395,5232.4,4008,4138.6
-13293,-11563.4,-12047.4,-16373.4,2393.4,5231.5,4006,4136.5
-13293.8,-11561.9,-12049.5,-16373,2396.2,5231.9,4006.6,4136.7
-13289.9,-11563.3,-12054,-16374.1,2398.6,5235,4014.4,4144.1
-13289.3,-11563,-12055,-16372.6,2401.5,5242.1,4022.7,4154.5
-13287,-11556.8,-12051.7,-16370.1,2398,5242.2,4021.9,4151.2
-13286,-11554.7,-12052.4,-16367.7,2398.6,5239.8,4018.7,4145.5
-13286.3,-11557.9,-12050.4,-16367.1,2399,5237.6,4016.1,4144.6
-13285.7,-11560.5,-12046.2,-16365.9,2401.2,5239.6,4018.2,4148.1
-13287.6,-11561,-12046.8,-16367.6,2404.4,5240.9,4022.3,4146.4
-13287.1,-11557.1,-12048.3,-16366.9,2403.1,5238.6,4018.6,4140.1
-13286.4,-11553.6,-12049.2,-16368.2,2397,5235.6,4011.4,4139.4
-13285.5,-11557.6,-12051.5,-16371.3,2395.1,5238.7,4016.8,4149.1
-13284.9,-11558.1,-12052,-16369.7,2395.7,5240,4019,4148.4
-13287.4,-11557.7,-12052.2,-16369.2,2397,5239.1,4016.2,4144.8
-13289.5,-11558.9,-12050.1,-16368.9,2397,5236.8,4012.6,4142.2
-13288.9,-11562.7,-12049.4,-16368.9,2393,5231.3,4006.4,4134.6
-13290.4,-11562.1,-12050.9,-16370.7,2393.4,5230,4004.1,4131.1
-13291.9,-11564.6,-12052.5,-16374.8,2394.5,5231.8,4005.5,4134.8
-13293.8,-11564.8,-12054,-16377.2,2393.3,5232.6,4007,4137
-13294.9,-11559.6,-12052.4,-16377.2,2392,5228.2,4003.7,4130.2
-13297.1,-11563.7,-12054.1,-16380.9,2395.9,5229.6,4006.7,4135.7
-13297,-11567.2,-12056.1,-16384.3,2396.9,5233.5,4012.4,4142.5
-13299.5,-11566.7,-12056,-16381.9,2396.3,5236.2,4015.1,4145
-13299.4,-11567,-12054.6,-16377.4,2395.7,5237.4,4017.4,4146.6
-13299.5,-11567.5,-12055.8,-16374.6,2396.1,5238.4,4019.5,4147.7
-13297.7,-11566.9,-12056.5,-16374.6,2397.5,5239.7,4021.2,4148.6
-13295.4,-11566.3,-12055.9,-16377.5,2394.9,5239.4,4020.5,4148.9
-13294.4,-11567.3,-12057.9,-16381.4,2389.6,5237.1,4019.7,4147.2
-13296,-11567.4,-12056.3,-16380.2,2393.4,5236.6,4019.2,4145.8
-13296,-11569.7,-12054.3,-16382.3,2394.4,5238.3,4021.2,4147.9
-13292.8,-11570.1,-12050.2,-16381,2392.7,5239.4,4020.9,4147.9
-13291.8,-11564.6,-12047.4,-16375,2390.8,5237.2,4014.8,4145.5
-13292.2,-11561.4,-12047.5,-16373,2391.3,5236.7,4013.5,4146.8
-13296,-11561.4,-12050.4,-16374.5,2395.7,5238.8,4018,4149.2
-13296.3,-11561.4,-12052.7,-16375.6,2399.8,5241.7,4021.8,4151.3
-13296.6,-11562.5,-12054,-16374.8,2403,5248.1,4027.9,4158
-13295.3,-11557.4,-12049.6,-16371,2400.4,5248.1,4026.2,4156
-13291.5,-11558.9,-12046.5,-16369.9,2399.6,5245.1,4025.9,4153.1
-13288.3,-11557.9,-12044.6,-16368.1,2400,5242.7,4022.4,4148.6
-13289.1,-11558.6,-12045.6,-16368.1,2403.1,5244.6,4023.7,4152.4
-13288,-11560.5,-12046.9,-16368.7,2403.7,5246.1,4024.4,4154.1
-13286.7,-11561.5,-12046.6,-16369.7,2403.5,5244.9,4023.3,4151.5
-13286.5,-11561.9,-12047.1,-16371.7,2402.5,5244.6,4023.2,4151
-13287.8,-11563.5,-12051.2,-16372.7,2404.4,5249.3,4030.7,4157.1
-13286.9,-11562.1,-12051.4,-16372.2,2406.1,5251.2,4033.4,4156.3
-13285,-11561,-12049.2,-16373.6,2404,5248.1,4031.1,4151.8
-13284.4,-11559.6,-12049.1,-16374.5,2405.6,5245,4027.4,4147.8
-13287.8,-11560.4,-12052.5,-16376.9,2403,5239.2,4019,4138.9
-13294.3,-11563.9,-12055.8,-16377.3,2403.5,5236.3,4011.8,4135
-13302.1,-11572.5,-12059.6,-16377.8,2406.9,5236.3,4009.4,4137.9
-13305.7,-11580,-12061.1,-16378.9,2407.3,5236.2,4008.8,4139.7
-13300.9,-11578.5,-12057.6,-16379.5,2403.9,5231.5,4006.4,4136
-13291.6,-11582.1,-12049,-16382.3,2397.6,5231.4,4013.1,4146.1
-13282.4,-11578.8,-12042,-16379,2390.4,5234.8,4022,4152.9
-13277.3,-11571.9,-12040.4,-16376.1,2388,5238.2,4028.9,4153.4
-13277.9,-11568.2,-12040.8,-16373.9,2391.1,5240.9,4031.9,4151.8
-13281,-11567.9,-12041.8,-16373.9,2394.6,5240.2,4029.2,4148.5
-13280.2,-11571.1,-12043.6,-16376,2398.1,5239.9,4026.4,4147.9
-13277.9,-11573.2,-12044.8,-16378.6,2400.9,5238.2,4026.3,4148.4
-13277.6,-11574.5,-12046,-16382.9,2395.6,5235,4025.8,4148.5
-13275.7,-11575.2,-12044.2,-16382.4,2393.9,5234.7,4022.6,4148.5
-13274.4,-11578.1,-12040.6,-16383.5,2393.8,5237.3,4022.1,4152.3
-13272.6,-11579.5,-12037.3,-16383,2396.3,5239.5,4024.3,4153.4
-13268.7,-11575.8,-12034.9,-16380.5,2399,5239.2,4022.7,4151.6
-13270.8,-11574.1,-12036,-16380.5,2399.3,5239.7,4025.6,4149.6
-13271.6,-11573.4,-12036.9,-16379.2,2399.4,5241.4,4028,4149.5
-13269,-11571.6,-12034.8,-16377.5,2396.2,5242.6,4024.8,4150.6
-13271.6,-11571.4,-12036,-16375.5,2399.8,5246.8,4027.2,4159.1
-13270.2,-11571.4,-12038.4,-16373.5,2402.8,5248.3,4028.5,4157.8
-13266.8,-11569.5,-12037.8,-16373.3,2405.2,5244.8,4025.9,4149.7
-13265.7,-11568.8,-12035.5,-16373.1,2403.1,5242.1,4022.6,4146.7
-13265.5,-11570.3,-12034.8,-16372.4,2404.4,5243.7,4024,4151.2
-13264.9,-11572.8,-12033.9,-16373.8,2403,5244.7,4026.2,4154.5
-13264.9,-11571.9,-12033.6,-16373.6,2400.5,5244.6,4023.9,4152.8
-13267.8,-11574.7,-12034.5,-16377.1,2401.4,5245.9,4025.9,4156
-13270.4,-11577.7,-12036.1,-16379.4,2403.5,5251.7,4035.2,4164.4
-13270,-11577.2,-12034,-16379.4,2405.2,5254.8,4039.2,4163.8
-13267,-11574.5,-12032.5,-16381.3,2406.6,5252.9,4038.2,4157.4
-13264.8,-11574.1,-12033,-16383.8,2406.9,5251.1,4037.1,4153.9
-13261.7,-11573.5,-12035.3,-16379.6,2402.1,5244.2,4029,4144.6
-13261.3,-11572.7,-12037.6,-16376.4,2402,5239.9,4023.8,4140.6
-13263.9,-11573.9,-12039.1,-16375,2402.4,5239,4023,4142.1
-13264.6,-11573.9,-12037,-16374.3,2400.4,5236.6,4021.5,4140.4
-13264,-11569.3,-12033.4,-16374.8,2399,5229.8,4016.2,4130.1
-13265.2,-11574.3,-12031.6,-16376.5,2402.4,5230.2,4016.9,4133.2
-13267.3,-11577.5,-12031.2,-16375.4,2402.4,5234.6,4021.2,4140.9
-13268.8,-11577.5,-12033.3,-16375.7,2403.1,5238,4026.4,4145.6
-13268.6,-11575,-12033.5,-16374.8,2403.1,5241.6,4030,4149
-13267.8,-11573.6,-12033.4,-16373.8,2399.8,5242.6,4028.8,4151
-13269.3,-11575.2,-12036.4,-16375.8,2401.1,5244.4,4030.7,4151.9
-13268.4,-11574.5,-12038.3,-16377.4,2401.8,5243.9,4030.7,4149.7
-13268.6,-11574.9,-12038.5,-16380.8,2398.8,5240.2,4028.7,4144.9
-13268.8,-11577.4,-12037.3,-16379.7,2401.6,5238.1,4027.1,4141.9
-13266,-11579.3,-12040.4,-16378.6,2402.3,5237.3,4026.6,4141.6
-13263.3,-11580.6,-12038.3,-16377.5,2402.7,5236.6,4025.1,4138.9
-13263.8,-11578.6,-12035.1,-16376.2,2404.1,5235.1,4022.7,4135.8
-13267.3,-11574.7,-12037,-16376.9,2404.3,5235.8,4023.1,4136.5
-13268.2,-11573.1,-12036.6,-16377.6,2404.1,5235.5,4023.9,4136.3
-13268.4,-11573.9,-12037.4,-16377.3,2406.4,5238.3,4027.8,4141.6
-13270,-11575.5,-12040.8,-16376,2412.5,5248.3,4039.4,4155
-13266.1,-11575.2,-12040.7,-16375.5,2411.8,5252,4044.5,4156.6
-13261,-11572.5,-12037.3,-16374.1,2408.3,5250.4,4042.2,4152.8
-13256.4,-11568.6,-12034.6,-16373.3,2408.1,5249.9,4040,4150.8
-13255.2,-11568.4,-12034.3,-16375.6,2411.3,5252.7,4043.1,4154.2
-13257.1,-11567,-12034.1,-16372.8,2409.4,5252.2,4039,4152.5
-13262.7,-11565.9,-12035.7,-16370.3,2411.3,5251.1,4033.6,4150.8
-13257.8,-11568.9,-12037.3,-16372.4,2409.2,5252.6,4035.2,4154.7
-13257.9,-11573.9,-12040.5,-16371.5,2410.1,5257.6,4042.8,4162.4
-13260.7,-11573.6,-12038.7,-16371.2,2411.2,5259.4,4045.6,4161.7
-13261.4,-11572,-12036,-16373.1,2413.4,5257.9,4043.6,4156.5
-13260.6,-11574.1,-12033.7,-16375.4,2414.7,5256.6,4042.8,4154.3
-13257.8,-11575.2,-12031.8,-16375.1,2410.9,5249.9,4035.6,4145.3
-13257.5,-11574.6,-12031.4,-16375.2,2409.4,5245.7,4030.4,4140.1
-13258.9,-11573.4,-12034.4,-16375.7,2410.8,5245.8,4029.4,4141.8
-13259.5,-11572.7,-12038.3,-16376.3,2410.6,5246.2,4030,4142.2
-13259,-11566.5,-12038.1,-16375.6,2405.1,5239.8,4020.4,4133.1
-13260.9,-11570.8,-12036.8,-16378.5,2407.8,5237.6,4016.6,4135.6
-13264.5,-11577.3,-12038.4,-16380.3,2410.2,5240.3,4020.3,4142.2
-13265.6,-11576.6,-12038.7,-16378.6,2408.3,5241.5,4019.8,4143.4
-13266.8,-11576,-12038.5,-16377.3,2406.3,5242.4,4018.5,4144.2
-13267.4,-11576.6,-12039.1,-16376.6,2406,5241.9,4017.6,4145.4
-13269.4,-11577.9,-12041.5,-16377.3,2406.6,5241.1,4019.3,4146.8
-13270.6,-11579.9,-12042.3,-16379.4,2407.1,5241.7,4023.5,4148.9
-13272,-11580.2,-12041.7,-16381,2404.5,5239.4,4024.7,4145.9
-13272.7,-11582.1,-12040.9,-16379.7,2402.1,5237.6,4021.8,4144.5
-13266.2,-11577,-12037.6,-16376.4,2392.7,5236,4014.6,4142.7
-13262.2,-11574.7,-12036.9,-16377.5,2391.4,5235.4,4011.6,4143.4
-13263.7,-11576.3,-12035.6,-16376.3,2396.3,5236.5,4011.9,4145.6
-13264.1,-11580,-12041.2,-16374,2397.7,5237.7,4015.6,4147.7
-13264,-11579,-12046,-16369.9,2396.8,5237.9,4016.9,4146.5
-13266.2,-11576.6,-12047.9,-16366,2396.8,5240,4018.3,4148.1
-13268.6,-11577.3,-12051.7,-16364.4,2402.1,5247,4025.2,4158.2
-13266.9,-11575.2,-12047.3,-16364.8,2402.3,5248.8,4026.3,4157.9
-13264.4,-11571.9,-12042.6,-16365.3,2402.9,5246.5,4025.3,4151
-13264.3,-11570.3,-12038.9,-16364.9,2403.6,5243.5,4023,4145.5
-13263.7,-11570.9,-12037.5,-16362.4,2405.1,5243.7,4023.5,4146.6
-13260.4,-11569.6,-12036.6,-16362,2403.9,5242.8,4022.7,4145.3
-13260.2,-11569.8,-12037.2,-16363.9,2402.5,5239.9,4021.1,4141.5
-13260.7,-11568.3,-12040.7,-16364,2402.9,5239,4019.4,4139.1
-13263.8,-11572.3,-12045.3,-16366.1,2402.3,5241.5,4023.5,4145.7
-13265.6,-11569.6,-12044,-16364.4,2400.8,5242.1,4020.3,4144.5
-13268.6,-11567.8,-12043,-16365.9,2400.7,5239.7,4015.5,4141.7
-13266.7,-11568.2,-12043.2,-16367.3,2399.3,5236.6,4010.6,4138.6
-13267.9,-11575.8,-12042.4,-16368.6,2395.5,5231.4,4005.5,4132.5
-13267.8,-11578.2,-12042,-16369.6,2395.7,5230.2,4003,4130.6
-13269.7,-11580,-12045.2,-16372.3,2397.4,5231.5,4007,4134.9
-13271.9,-11581.3,-12047.7,-16374.3,2394.5,5232.4,4009.5,4135.4
-13271.2,-11575.5,-12045.9,-16373,2390.7,5227.1,4003.3,4127.2
-13274.6,-11581.4,-12045.3,-16376.1,2393.5,5227.3,4006.8,4132.7
-13274.5,-11582.4,-12047.8,-16374.6,2395.2,5230.7,4011.2,4136.4
-13271.1,-11580.2,-12049,-16373.1,2393.4,5230.6,4011.3,4136.1
-13269.4,-11577.8,-12048.8,-16371.8,2391,5230.1,4010,4134.3
-13267.9,-11576.5,-12048.6,-16370.7,2390.9,5232.1,4011.1,4135.4
-13265,-11579.1,-12043.6,-16374.5,2390.7,5234.6,4014.8,4137.9
-13264.4,-11577.8,-12040.2,-16382.1,2391.1,5236.7,4018.4,4138.8
-13265.8,-11581.1,-12042.4,-16385,2388.4,5234.9,4020.2,4136.5
-13266.4,-11584.7,-12043.3,-16381.5,2391.9,5234.8,4020.2,4135.3
-13267.6,-11588.2,-12046.2,-16381.1,2394.8,5237.1,4022.6,4137.5
-13267.5,-11589.3,-12050,-16381,2400.9,5239.3,4025.2,4138.6
-13267.4,-11592.2,-12050.1,-16383.1,2407,5240,4024.8,4138.1
-13269.1,-11599.6,-12050.7,-16386.7,2405.9,5241.8,4023.2,4139.2
-13270.9,-11603.6,-12054.1,-16388.3,2406.2,5243,4019,4138.8
-13273.6,-11604.3,-12057.3,-16389,2411.4,5244.2,4019.1,4143
-13275.5,-11599.3,-12058,-16387.4,2414.7,5250.6,4030.5,4158.4
-13273.8,-11584.5,-12054.1,-16381.1,2406.5,5253.3,4037.5,4162.4
-13269.4,-11575.9,-12049.2,-16373.9,2400.2,5251.9,4037,4159.5
-13266.9,-11577,-12046.4,-16371.9,2401.1,5251.5,4036,4154.9
-13268.3,-11578.8,-12043.1,-16370.9,2407.5,5254.3,4038.4,4154.3
-13271.4,-11577.4,-12044.2,-16370.3,2409.5,5254.7,4038.7,4153.7
-13268.7,-11575.4,-12043.2,-16368.9,2408.7,5252.4,4038.1,4151.7
-13266.8,-11575,-12044.1,-16367.4,2407.7,5251,4038.2,4151.8
-13266.9,-11581.9,-12049.4,-16370.7,2411.1,5255.1,4044.8,4158.5
-13269.3,-11583.2,-12049.3,-16372.1,2414.5,5255.8,4043.9,4155.1
-13271,-11578.4,-12048.8,-16370.6,2413.4,5252.5,4036.6,4148.8
-13270.5,-11573.4,-12046,-16368.9,2407,5248.8,4030.3,4148.2
-13270.3,-11573.8,-12045.9,-16366.7,2399.2,5241.4,4021.7,4139
-13272.5,-11578.5,-12048.1,-16369.2,2400.1,5238.8,4018.4,4135.8
-13277.6,-11583.4,-12051.5,-16373.7,2405.3,5240,4018.6,4139.1
-13278.6,-11584.9,-12050.3,-16376.4,2404.3,5238.2,4016.8,4138.1
-13282.6,-11579.6,-12047.9,-16376,2402.5,5231.5,4010.7,4129.7
-13283,-11583.2,-12051.8,-16377.5,2402.5,5232.1,4013.4,4138.2
-13279.8,-11585.2,-12053.1,-16376.2,2401.4,5236,4016.4,4144.7
-13280.5,-11587.8,-12054.8,-16378,2404,5240.8,4022.7,4151.2
-13283.4,-11589.4,-12056.7,-16380.3,2405.7,5245.3,4029.1,4156.4
-13283,-11588,-12055.4,-16379.4,2406,5247.7,4032.6,4156.9
-13280.6,-11587,-12055.8,-16378.6,2405.4,5248.5,4034.5,4155.6
-13277.3,-11584.7,-12056.5,-16378.4,2401.5,5248.1,4031.5,4154.5
-13278,-11588,-12059.7,-16384,2398.1,5247.6,4031.8,4155.1
-13277.5,-11587.6,-12059.6,-16384.8,2400,5246.7,4029.9,4152.8
-13277.4,-11588.7,-12059.3,-16383.6,2400.5,5247.1,4030.4,4151.5
-13277.3,-11588.2,-12056.9,-16379.1,2402.9,5247.2,4028.6,4149.4
-13278.1,-11588.2,-12056,-16375.7,2404.5,5246.3,4026.3,4148.8
-13276,-11589.3,-12057.2,-16374.7,2403.2,5245.8,4026,4150.3
-13274.8,-11590.3,-12057,-16375.1,2403.2,5245.9,4027.1,4153.1
-13275.5,-11589.7,-12058,-16375,2403.2,5246.2,4028.6,4155.6
-13277.8,-11587.2,-12058.9,-16373,2409.8,5252.3,4034.4,4164.4
-13277.8,-11585.4,-12054.2,-16371.3,2408.9,5253.6,4036,4164.1
-13274.3,-11582.8,-12052.2,-16368.9,2405.4,5251.6,4032.8,4159.2
-13272.9,-11579.7,-12051.7,-16368.1,2406.6,5250,4029.7,4156.6
-13273.2,-11579.9,-12053.9,-16367.4,2409.8,5251.2,4030.8,4158
-13271.3,-11580.7,-12055.1,-16366.4,2411.7,5251.5,4032.5,4157.1
-13269,-11581.4,-12051,-16369,2409.7,5248.1,4030.1,4152.6
-13268.6,-11582.4,-12051.6,-16371.7,2407.4,5246.8,4028.3,4150.8
-13272.7,-11586.3,-12058,-16370.4,2407,5251,4032.8,4157.5
-13274.2,-11584.5,-12056.7,-16370,2408,5252.5,4032.6,4157.3
-13273.6,-11581.7,-12054.4,-16370.2,2408.4,5249.8,4029.1,4154.3
-13273.4,-11582.4,-12053.9,-16370.7,2407.7,5246.4,4027.1,4153.4
-13273.3,-11584.9,-12055.5,-16369.7,2402.7,5240.7,4021.4,4145.5
-13271.4,-11585.8,-12054.5,-16368.9,2399.9,5237.6,4016.9,4143
-13275.6,-11587.8,-12056.4,-16369.7,2401.5,5239.1,4019.5,4146.5
-13276.4,-11586.4,-12057.6,-16369.4,2402.1,5239.4,4021.1,4146.5
-13277.8,-11582.1,-12056,-16368.6,2398.3,5233.4,4015.6,4138.9
-13277.9,-11585.2,-12055.1,-16369.5,2401.1,5234.1,4017.2,4143.6
-13278.1,-11589,-12054.6,-16370,2403.1,5238.9,4025,4150.5
-13278.7,-11590.8,-12056.5,-16369.8,2406.4,5244.1,4032.4,4154.4
-13277.3,-11589.2,-12059.1,-16371.4,2411.3,5247.3,4038.2,4155.4
-13276,-11589.3,-12061,-16374.5,2413.3,5248.9,4040.9,4156.3
-13273.6,-11589.2,-12057.4,-16372.8,2411,5249,4039,4155
-13273.4,-11588.3,-12056.7,-16372.5,2407.5,5248.7,4037.9,4154.4
-13273.6,-11589.5,-12058.5,-16375.6,2405.6,5246.7,4036.5,4151.7
-13271.2,-11588.2,-12058.2,-16373.2,2402.8,5243.8,4031,4146.9
-13270.8,-11588.6,-12057.9,-16371.1,2405.2,5244.7,4030.1,4145.9
-13272.8,-11592,-12058,-16370.3,2409.1,5245.2,4030.9,4146.1
-13275.1,-11591.1,-12057.9,-16367.6,2410.6,5245.3,4027.6,4145.5
-13278.2,-11589.6,-12060.1,-16366.1,2409.4,5246.1,4026.8,4147.5
-13276.2,-11587.8,-12061.7,-16365,2408.8,5245.7,4027.7,4147.9
-13275.4,-11587.4,-12062,-16365,2408.8,5246,4028.6,4149
-13276.9,-11588.4,-12061.8,-16365.2,2412.8,5253.7,4036.4,4159.6
-13275,-11585,-12059.1,-16364.2,2411.4,5255.9,4036.7,4158.2
-13273.6,-11581.8,-12059.2,-16362.8,2409.3,5252.5,4030.7,4152.6
-13272.6,-11582.2,-12060.4,-16363.3,2409.6,5248.6,4026.6,4148.1
-13269.7,-11583.1,-12057.3,-16362.9,2412.3,5248,4025.9,4146.3
-13266.2,-11580.6,-12054.6,-16361.6,2411.8,5247.7,4024.8,4140.6
-13267.7,-11579.3,-12058.3,-16360.8,2412.1,5246.8,4022.2,4131.6
-13271,-11580.8,-12060.6,-16363.7,2413.3,5246,4023,4124.2
-13269.6,-11582.8,-12057.1,-16368.9,2411.3,5248.6,4030,4125.1
-13270.3,-11580.4,-12052,-16369.5,2409.6,5249.2,4028.7,4118.9
-13270.8,-11580.2,-12050,-16365,2406.8,5244.5,4020.3,4110.3
-13272.8,-11577.9,-12050,-16360.5,2404.7,5239.8,4012.4,4106.6
-13272.4,-11580.9,-12053.9,-16359.3,2400,5233.9,4005.8,4097.6
-13270.2,-11584.6,-12054.7,-16363.3,2400.2,5232.3,4005.9,4089.7
-13273.6,-11583.4,-12054.2,-16366.7,2401.1,5234.3,4009.1,4091.3
-13277.3,-11582.3,-12056.5,-16366.1,2397.4,5235,4010.9,4092.7
-13276,-11577.4,-12056.5,-16362.8,2394.9,5229.6,4005,4083.3
-13275.9,-11581.9,-12057,-16365.7,2397,5228.6,4004.2,4086.1
-13277.8,-11586.4,-12056.6,-16366.6,2396.4,5230.3,4007,4091.4
-13279.3,-11587.5,-12057.3,-16366.5,2396.4,5232.6,4009.2,4092.9
-13276.6,-11586.5,-12054.7,-16367.9,2397.1,5233,4008.9,4091.6
-13276.9,-11586.6,-12054,-16370.6,2397.8,5234.3,4010.2,4091.9
-13278.9,-11588.9,-12057.8,-16372.3,2399.3,5236.1,4012.7,4092
-13276.9,-11589.4,-12061,-16372.9,2398.4,5235.4,4012.6,4089.9
-13276.9,-11590.5,-12062,-16375.9,2395,5233.4,4011.9,4087.4
-13280,-11596.1,-12063,-16376.6,2398,5232.9,4014.2,4087
-13279.4,-11595.6,-12062,-16374.3,2398.2,5233.6,4015.8,4087.5
-13279.1,-11595.8,-12061,-16374.3,2397.3,5236.5,4017.1,4089.2
-13278.7,-11594.7,-12061,-16373.2,2398.5,5237.8,4016.3,4089.4
-13278.1,-11591.6,-12062,-16370,2396.4,5235.8,4012.8,4088.3
-13280.8,-11592.6,-12065.6,-16370,2397.3,5236.8,4013.1,4090.5
-13282.5,-11593.5,-12066.4,-16372.9,2400.6,5238.8,4015.6,4092.3
-13284.3,-11591.9,-12066.2,-16372.4,2408.5,5245.6,4023,4102.5
-13279.3,-11595.1,-12061.3,-16374.7,2407.7,5249.4,4030.7,4106.8
-13276.2,-11591.2,-12057.1,-16373.7,2403.5,5247.5,4028.8,4099.8
-13274.9,-11588.2,-12054.4,-16374.1,2404.2,5246.4,4026.3,4096.4
-13273.4,-11588.8,-12052.5,-16376.6,2406.1,5248,4027.4,4098.8
-13271.7,-11586,-12052.1,-16377.7,2405.9,5247.1,4025.7,4096.3
-13271.9,-11584.8,-12050.5,-16376.3,2407.9,5243.1,4022.3,4090.6
-13278.5,-11586.6,-12052.2,-16374.9,2406.3,5241.8,4020.7,4089.5
-13277.7,-11588.5,-12061.8,-16373.8,2405.3,5244.7,4025.2,4096
-13274,-11588.4,-12060.9,-16373.8,2402.7,5244.5,4024.2,4094.7
-13277.6,-11585.9,-12056.6,-16371.6,2400.6,5241.2,4017.7,4088.9
-13280,-11586.1,-12057.5,-16370.2,2399.4,5238.2,4014.4,4087
-13277.7,-11587.9,-12057.6,-16369.5,2394.1,5232.9,4008.9,4079.5
-13276.4,-11587.5,-12058,-16370.9,2393.9,5229.2,4004.7,4075.1
-13279.1,-11589,-12059.3,-16373.4,2395.2,5229.8,4006.8,4077.1
-13280.8,-11590.3,-12060.1,-16376.7,2396.9,5230.3,4009.7,4076.4
-13280.3,-11586.4,-12059.4,-16378.4,2396.9,5225.2,4005.1,4067.7
-13282.5,-11588.1,-12059.4,-16379.7,2398.6,5223.1,4001.4,4068.9
-13285.9,-11591.2,-12060,-16379.8,2396.5,5226,4003.7,4075.6
-13282.3,-11592.8,-12060.3,-16379.7,2393.1,5228.7,4006,4080
-13280.8,-11593.4,-12061,-16379.2,2392.7,5231.5,4007.4,4082.5
-13284.3,-11593.8,-12063.3,-16380.1,2392.1,5232.5,4007.4,4082
-13286.2,-11593.4,-12065.1,-16380.9,2395.2,5232.6,4008.6,4081
-13286.6,-11595.2,-12067.5,-16382.4,2396.4,5232.9,4013.7,4082.9
-13285.1,-11594.6,-12068.4,-16384.7,2391.5,5229.1,4013.4,4078.4
-13284.9,-11594.8,-12067.1,-16385,2392.6,5228.3,4013.2,4076.3
-13284.6,-11594.8,-12066.1,-16383.7,2389.8,5229.2,4013.1,4077.3
-13284.9,-11595.6,-12064.6,-16382.1,2389.8,5232.5,4015.8,4079.9
-13285.1,-11590.7,-12062,-16381.6,2394.3,5234.8,4016.4,4079.3
-13289.7,-11591.7,-12062.2,-16384.6,2398.7,5237.6,4021.1,4083.6
-13288.9,-11592.4,-12061.5,-16380.2,2398.2,5238.3,4021.9,4084.2
-13286.6,-11593.4,-12061.2,-16376.1,2397.6,5240,4022.4,4086.4
-13287.9,-11593.3,-12064.3,-16373,2402.5,5247.4,4031.3,4097.6
-13285.2,-11587.9,-12064.1,-16369.6,2398.9,5247.9,4030.7,4096.1
-13283.1,-11584.9,-12063.4,-16368.7,2397.8,5245.1,4026.3,4091.5
-13282.5,-11585.5,-12062.3,-16368.5,2400,5245.4,4025.9,4090.7
-13281.7,-11586.9,-12059.5,-16368.3,2402.4,5248.2,4029.2,4093.8
-13279,-11587.2,-12056.7,-16368.5,2402,5248.6,4029.9,4091.7
-13277.5,-11584.2,-12054.6,-16368.4,2402.6,5246.3,4025.7,4085.2
-13279.8,-11586,-12056.7,-16371.1,2403.3,5245.3,4023.8,4085.2
-13284.4,-11593.5,-12061.1,-16375.7,2404.9,5248.9,4030.9,4092.6
-13285.5,-11595.8,-12060.9,-16378.6,2407.3,5250.5,4032.2,4090.5
-13285,-11596.7,-12061.5,-16381.2,2409.8,5248.3,4027.4,4085.1
-13288.4,-11594.7,-12062.2,-16381.5,2410.3,5246.2,4023.9,4084
-13288.2,-11590.5,-12061.5,-16378.8,2400.3,5239.7,4019.6,4080.3
-13284.3,-11583.8,-12059.9,-16375.2,2393.4,5237.4,4018,4078
-13283.3,-11584.1,-12063.3,-16375.3,2392.5,5238.7,4019.3,4079.3
-13283.3,-11583.3,-12064.7,-16375.3,2392.2,5238.8,4019.8,4077.8
-13283.8,-11575.2,-12061.5,-16372.6,2389.7,5232,4012.7,4067.9
-13285.7,-11575.5,-12060.8,-16371.6,2391.5,5229.8,4010.7,4069.9
-13286.9,-11580.1,-12062.2,-16372.2,2393.2,5233.7,4014.7,4077.6
-13287.9,-11586.4,-12063.9,-16373.9,2395.9,5238,4018.8,4080.3
-13288,-11586.6,-12066.1,-16372.8,2396.8,5238.8,4017.6,4078.6
-13290.5,-11585.5,-12067.1,-16371.9,2397.9,5239.1,4018.2,4079.1
-13291.8,-11585.8,-12066.9,-16372.3,2395.8,5238.5,4018.6,4080
-13290.3,-11583.1,-12066.4,-16374,2392.7,5238.3,4018.1,4080.2
-13292.8,-11586.1,-12070.7,-16381,2391.8,5238.3,4019.6,4079.8
-13293.3,-11583.7,-12071,-16380.9,2392.5,5237.9,4016.3,4080
-13291.9,-11588.1,-12068.1,-16381.2,2392.9,5239.3,4019.4,4082.8
-13289.8,-11589.7,-12064.1,-16378.1,2392.1,5239.7,4020.5,4082
-13288.5,-11585.9,-12060.1,-16373.9,2393,5237.8,4017.8,4078.6
-13290.9,-11582.8,-12061.9,-16372.3,2396.6,5237.5,4019.4,4079.2
-13292.3,-11581.8,-12059.8,-16373.2,2396.1,5238.1,4019.8,4079.9
-13293.4,-11584.9,-12060.1,-16373.9,2398.9,5241.1,4023.4,4082.1
-13293.6,-11586.9,-12064.6,-16371.1,2405,5249.9,4033.4,4094.1
-13291.5,-11581.2,-12062.3,-16366,2399.9,5251.3,4032.8,4093.4
-13290.9,-11574.8,-12059.6,-16362.8,2395.9,5247.5,4027.5,4087.3
-13287.4,-11574.6,-12055.1,-16362.3,2396.3,5245.3,4027.5,4085.9
-13286.9,-11575.6,-12052.6,-16361.4,2399.2,5246.4,4030.2,4087.1
-13290,-11572.2,-12054.3,-16360.2,2400.9,5246.3,4028.3,4083.6
-13288.2,-11573.5,-12056.2,-16361.6,2404.7,5247.4,4030.1,4084.2
-13285,-11577.4,-12060.5,-16367.5,2407.4,5250.1,4036.4,4088.2
-13285.7,-11579.7,-12062,-16370.5,2409,5254.7,4045.9,4095.1
-13284.3,-11578.1,-12059,-16369.3,2408,5256.7,4048.6,4093.7
-13281.3,-11573.1,-12056.4,-16368.8,2405.6,5253.5,4041.7,4086.7
-13282.6,-11573.1,-12055.5,-16373.6,2405.6,5252.1,4036.9,4086.4
-13282.6,-11577.8,-12055.3,-16373.2,2404.3,5247.8,4032.2,4081.3
-13282.6,-11579.1,-12057.5,-16371.1,2403.8,5245.7,4029.1,4079.4
-13286.1,-11579.4,-12061,-16371.1,2405.5,5247.6,4030.3,4083.1
-13287.1,-11580.4,-12063.3,-16372.5,2404.7,5247.6,4032.7,4083.8
-13285.6,-11573.6,-12059,-16372.1,2401.9,5239.2,4025.2,4070.5
-13285.1,-11574.7,-12057.3,-16373.5,2403,5235.1,4021,4070.5
-13285.1,-11578.2,-12058.4,-16373.8,2403,5236.9,4023.7,4078.1
-13285.8,-11578.9,-12059.2,-16372.7,2404.9,5239,4026,4079.7
-13283.9,-11576.7,-12057.5,-16371.5,2403.8,5238,4024.9,4077.3
-13284.9,-11575.9,-12057.8,-16371.8,2402.2,5238.1,4024.3,4076.2
-13287,-11578.6,-12058.9,-16373.8,2402.4,5240.5,4026.6,4079.4
-13287.5,-11579.9,-12058.9,-16377.5,2400.6,5242.6,4028.5,4081.3
-13289.2,-11580.6,-12060.7,-16381.5,2396.7,5241.7,4027.4,4079.6
-13290.4,-11583,-12061.1,-16381.4,2396.3,5241.8,4027.2,4079.7
-13290.6,-11585.4,-12061,-16381.2,2397.8,5242.9,4028.9,4080
-13288.5,-11585.7,-12063.3,-16380.6,2401.3,5243.9,4029.9,4079.5
-13289.5,-11583,-12063.5,-16378.2,2404.4,5244,4028.7,4079.5
-13290.6,-11581.2,-12065,-16378.7,2404.2,5245.4,4029.4,4082.4
-13289.4,-11581.1,-12064.5,-16380.7,2404.5,5246.7,4032.9,4084.4
-13290.1,-11578.4,-12066.1,-16379.1,2405.8,5249.4,4036.7,4087.3
-13292.7,-11579.6,-12071.2,-16376.2,2412.9,5259.1,4048.4,4100.1
-13287.2,-11575.3,-12068.5,-16372,2410.3,5260.6,4049.3,4097.5
-13285,-11571.2,-12062.5,-16372,2410.3,5258.2,4045,4091
-13284.8,-11571.6,-12057,-16374.3,2411.2,5257.8,4043.3,4089.9
-13284.6,-11574.5,-12053.8,-16373.2,2411.8,5258.8,4044.2,4092.4
-13282.7,-11572.3,-12052,-16370.4,2412.3,5258.8,4042.5,4091.4
-13285.3,-11570.5,-12052.3,-16369.8,2411.7,5255.4,4037,4085.8
-13289.1,-11572.1,-12056.4,-16371.9,2411.7,5252.5,4033.1,4082.8
-13288.7,-11574.6,-12062,-16373.5,2412.1,5254.6,4036.5,4087.2
-13286.8,-11573.7,-12060.3,-16372.6,2409.8,5254.1,4034.6,4087.4
-13287.7,-11574.5,-12057.5,-16373.3,2408,5252.1,4031.9,4085.7
-13287.6,-11575.6,-12055.5,-16374.1,2409.5,5251.2,4030.5,4084.5
-13286.1,-11578.1,-12055.3,-16373.5,2404.4,5243.9,4023,4073
-13286.6,-11577.2,-12059.1,-16373.1,2402.1,5241.3,4017.2,4068.2
-13289.4,-11577.5,-12065.1,-16376.3,2401.5,5242.2,4017.1,4071.2
-13290.3,-11577.4,-12065.8,-16378.5,2398.1,5241.2,4015.3,4070.5
-13288.5,-11571.4,-12059,-16379.9,2392.2,5234.6,4006.8,4062.8
-13291.1,-11576.5,-12058.1,-16382.3,2392.3,5233.6,4006.8,4067.2
-13289.6,-11582.3,-12059.9,-16382.4,2393.1,5237.6,4012.8,4073.5
-13289.1,-11584.1,-12060.8,-16382.9,2392.3,5240.1,4015.6,4076.9
-13289.6,-11586.6,-12061.2,-16385.4,2393.7,5242.4,4018.9,4078.7
-13289.1,-11585.6,-12061.8,-16383.8,2392.8,5243.1,4018.2,4078
-13292.9,-11584,-12064,-16382.4,2394.5,5242.9,4017.6,4076.9
-13293.4,-11584.8,-12067,-16384.5,2394.4,5242.6,4020.6,4077.3
-13288.7,-11588.3,-12071.2,-16388.1,2391,5240.5,4022.1,4075.5
-13288.4,-11594.1,-12069.7,-16389.1,2394.3,5241.6,4025.3,4076.9
-13288.6,-11593.1,-12067.9,-16388.9,2395.4,5244.7,4027.8,4080
-13289.8,-11589.9,-12065.1,-16387.3,2396,5245.5,4027.6,4080.1
-13289,-11587.4,-12064.2,-16386.5,2396.3,5246.6,4025.7,4080.1
-13288.3,-11588.3,-12066.2,-16386.2,2397.3,5248.8,4027,4082.1
-13287,-11589.3,-12066.7,-16384.6,2396.5,5248.9,4025.8,4081.1
-13286.1,-11586.3,-12067,-16381.4,2397.8,5247.9,4026.1,4079.1
-13288.1,-11587.3,-12069.8,-16382,2404.8,5256.3,4035.3,4090.4
-13286.5,-11586.9,-12066.1,-16382.8,2405.1,5258,4038,4089.7
-13285.9,-11583.9,-12064,-16381.8,2402.8,5254.3,4033.4,4083.2
-13286.1,-11581.8,-12064.4,-16380.5,2402.4,5252.2,4028.7,4079.7
-13283.8,-11583.3,-12062.7,-16379.4,2404.4,5253.3,4028.3,4080.9
-13283.7,-11584,-12060.6,-16377.1,2404.3,5253.7,4027.6,4080.3
-13285.5,-11584.6,-12059.8,-16377.9,2404.2,5252.4,4026.5,4078.1
-13289.3,-11586.8,-12063,-16379.8,2404.9,5252.8,4028.7,4078.8
-13291.9,-11586.4,-12067.1,-16380.2,2405.2,5255.5,4036.1,4084.8
-13292.2,-11581.4,-12066.3,-16377.5,2404.8,5254.9,4036.3,4082.5
-13291.6,-11580,-12066.2,-16375.8,2404.9,5250.9,4031.4,4076.8
-13291.5,-11582.4,-12067.3,-16375.7,2405.1,5248.4,4028,4074.3
-13290.3,-11582.4,-12067.5,-16374.9,2399.5,5242.6,4019.2,4065.4
-13289.7,-11583.2,-12067.7,-16377,2397.3,5240.2,4013.2,4062.5
-13292.2,-11586.7,-12069,-16381.6,2397.3,5241,4014.3,4066.1
-13292.4,-11587.5,-12066.7,-16383.9,2393.4,5239.1,4013.1,4065.6
-13294.3,-11582.3,-12065.1,-16383.7,2389.8,5232.3,4005.3,4056.1
-13300.2,-11584.8,-12069.9,-16385.7,2395.8,5231.1,4003.6,4058.1
-13297.3,-11593.1,-12073.5,-16389,2398.7,5235.3,4011.5,4067.5
-13293.6,-11594.2,-12072.6,-16387.9,2394.3,5238.3,4014.1,4070.8
-13295.5,-11593.8,-12072.4,-16387.9,2396,5240.7,4017.3,4073.6
-13295.4,-11598.7,-12075.2,-16390.4,2398.4,5244.8,4025.1,4079.4
-13290.7,-11595.1,-12071.2,-16386.9,2393.5,5245.8,4025.3,4078.6
-13291.8,-11592.4,-12068.9,-16387.1,2393.6,5246,4026.6,4076.6
-13293.2,-11594.4,-12069.4,-16392,2389.6,5245.2,4029.8,4074.3
-13291.6,-11593.3,-12067.7,-16389.3,2392.1,5245.5,4029.5,4071.5
-13292.5,-11593.9,-12067.4,-16388.3,2392.7,5245.9,4029.4,4072.4
-13292.5,-11595.2,-12064.5,-16387.4,2393.3,5246.1,4029.2,4072.9
-13291.8,-11594.9,-12062.3,-16385.2,2395.4,5245,4026.1,4070.8
-13292.3,-11595.1,-12061.5,-16384.9,2395.4,5245.4,4026,4073.6
-13291.5,-11592.3,-12062.9,-16383.2,2394.1,5244.4,4024.5,4072.8
-13288.8,-11591.8,-12066.2,-16382.6,2396.8,5246.3,4027,4075.3
-13289.7,-11594.1,-12070.6,-16381.7,2404.6,5254.7,4037.4,4087.3
-13288,-11593.4,-12068.3,-16381.4,2405.3,5256.5,4039.9,4086.1
-13287,-11588.5,-12064.1,-16379.7,2403.1,5253.9,4037.5,4082.6
-13287.5,-11583.7,-12063,-16377.1,2402.8,5251.4,4035.5,4080.3
-13287.5,-11581.3,-12062.5,-16374.8,2404.2,5251.7,4036.5,4081.7
-13285.8,-11577.7,-12061.1,-16372.9,2402.9,5252.6,4034.8,4081.2
-13286.5,-11577.4,-12059.7,-16373.1,2401.5,5252.2,4033.1,4080.8
-13288.1,-11575.6,-12060.7,-16373.5,2398.8,5251.4,4032.4,4080.5
-13290.4,-11575.7,-12064.4,-16374.1,2402.3,5254.9,4038.9,4084.9
-13293.9,-11578.5,-12064.8,-16375.9,2405.6,5257.1,4041.3,4084.9
-13298.2,-11580.9,-12066.2,-16376.8,2408.6,5254.9,4037.7,4080
-13297.5,-11584.1,-12064.2,-16377.5,2409.8,5251.5,4032.7,4076.6
-13291.8,-11591.3,-12058.9,-16379.5,2403.3,5244,4026.3,4070.3
-13283.2,-11585.8,-12052.2,-16377.8,2396.1,5239.2,4024.6,4068.5
-13279.2,-11571.8,-12048.4,-16373.3,2386.6,5238.3,4027.1,4072.1
-13280.1,-11561.3,-12048.9,-16368.2,2380.4,5239.3,4028.8,4070.7
-13284.4,-11551,-12049.6,-16363.5,2377.7,5234,4020.6,4058.2
-13287.9,-11552.4,-12055.4,-16363.2,2383.9,5233.6,4017.8,4058.8
-13289.5,-11556.2,-12060,-16363.6,2388.3,5238.8,4022.7,4067.2
-13290.8,-11554.2,-12060.2,-16361.9,2388.2,5241.8,4025.6,4070.1
-13289.8,-11546.8,-12059.6,-16358.5,2387.2,5241.6,4024.7,4067.6
-13289.2,-11544.3,-12060,-16358.3,2385.3,5242.6,4026,4069.3
-13290.5,-11541.2,-12057.8,-16357,2385.5,5242.9,4026.5,4069.8
-13289.5,-11540.3,-12054.5,-16358.3,2382.4,5242.1,4027.9,4071.2
-13284.6,-11540.6,-12051.2,-16361.3,2377.8,5240.7,4029.8,4068.2
-13282.3,-11537.9,-12049.1,-16358.5,2380.4,5241,4030.8,4065.4
-13282.6,-11533,-12049.1,-16356.1,2381,5242.5,4033,4066.9
-13281.8,-11526.8,-12046.4,-16352.1,2378.9,5242.1,4032.3,4066.9
-13281.4,-11520.9,-12040.6,-16347.9,2380.3,5240.5,4028.3,4063.1
-13281.6,-11519.2,-12040.6,-16345.4,2379.6,5239.3,4027.1,4064.7
-13281.7,-11511.1,-12043.8,-16340.6,2377.8,5238.8,4024.7,4063.8
-13282.4,-11506.2,-12043.4,-16337.9,2380.4,5240.5,4026.2,4065.2
-13284.4,-11502.5,-12045.4,-16334,2385.8,5248,4035.2,4075.1
-13282.3,-11496.4,-12042.3,-16329.4,2385.1,5249.4,4036.5,4073.4
-13279,-11491.2,-12038.1,-16325.8,2382.6,5247.3,4034.5,4069.1
-13273.8,-11492.3,-12033.7,-16326,2383.9,5246.9,4035,4069.1
-13271.7,-11488.7,-12030.3,-16324.2,2385.1,5248.8,4037.8,4072.3
-13271.3,-11482,-12028.7,-16322.2,2386.1,5249.9,4041.2,4073.3
-13265.9,-11477.2,-12024.9,-16320.1,2380.9,5247.3,4035.9,4069.2
-13263.5,-11472.3,-12026.1,-16318.7,2378.1,5245.5,4030.2,4068.2
-13263.6,-11472.4,-12029.7,-16319.8,2380.4,5248.7,4037.3,4076.6
-13263.3,-11465.2,-12027.6,-16316.7,2380.3,5248.8,4038.3,4073.9
-13264.5,-11459.2,-12025.8,-16314.3,2380.2,5246.1,4034.4,4067.3
-13263.9,-11457.3,-12026.4,-16312.6,2381.6,5243.6,4031,4064.3
-13262.4,-11457.2,-12025.5,-16310.4,2377.6,5237.2,4023.9,4055.9
-13260.7,-11453.1,-12023.9,-16308.4,2374.4,5233.1,4018.7,4051.7
-13262.4,-11449.7,-12022.9,-16310.5,2372.6,5232.4,4016.8,4052.8
-13262,-11447.8,-12021.8,-16311.8,2372.9,5231.7,4015,4051.7
-13261.4,-11443.3,-12023.1,-16308.8,2371.4,5225,4008,4042.6
-13265.7,-11444.9,-12022.7,-16305.6,2373,5222.8,4007,4045.1
-13267,-11447.3,-12021.9,-16302.9,2370.7,5225.1,4010.5,4051
-13269.2,-11445.4,-12022.9,-16299.3,2369.4,5226.9,4009.3,4049.1
-13271.7,-11444.4,-12024.4,-16299.9,2374.2,5227.9,4008.3,4048.1
-13268.8,-11448.7,-12022.9,-16305.1,2377,5229.5,4012.3,4050.9
-13264.9,-11451.3,-12018.7,-16307.7,2377.4,5230.3,4014.1,4051.5
-13264,-11450.5,-12018.4,-16308.3,2373.9,5230.3,4014.4,4051.9
-13264,-11449.3,-12018.3,-16311.2,2367.8,5229.2,4013.6,4049.9
-13264.7,-11448.3,-12021,-16310.1,2368.8,5229.3,4012.3,4047.6
-13264.4,-11446.4,-12028.8,-16307.8,2370.8,5230.3,4010.7,4047.4
-13264.8,-11448.8,-12027.1,-16308,2373.2,5230.5,4009.2,4047.5
-13266.9,-11449.3,-12024.4,-16307.9,2376.4,5230.7,4008,4047.8
-13267.8,-11452.3,-12025.3,-16307.9,2377,5231.8,4010.2,4051.5
-13268,-11453.5,-12023.8,-16307.2,2376,5233.4,4010.9,4054.2
-13272.5,-11455.7,-12026.5,-16307.6,2382.4,5236.8,4015.6,4058.4
-13275.7,-11458.1,-12030.2,-16309.3,2389.9,5246.1,4025.9,4072
-13270.5,-11454.1,-12028.8,-16306.4,2384.8,5247.4,4023.9,4070.6
-13268.6,-11454.1,-12026.2,-16304.3,2383.4,5243.7,4019.4,4065.7
-13270.1,-11458.2,-12025.2,-16306.2,2385.9,5244.3,4019.2,4066
-13267.4,-11459.3,-12027.2,-16305.5,2383.3,5247.6,4018.7,4071.2
-13265.6,-11462.3,-12030.5,-16306.9,2384.9,5248.6,4020.4,4071.1
-13263.9,-11466.4,-12027.2,-16308.5,2390.4,5247.5,4021.2,4066.9
-13266,-11470.3,-12024.4,-16311.2,2391.8,5245,4021.1,4064.9
-13270,-11475.8,-12029.4,-16314.9,2395,5249.6,4030.1,4072.4
-13267.4,-11475.4,-12029.9,-16316.4,2396.6,5250.7,4032.5,4070.1
-13266.7,-11473.1,-12028.4,-16315.6,2394.9,5246.5,4026,4063.5
-13267,-11476.9,-12030,-16317,2394.3,5242,4021.4,4060.2
-13268.9,-11477.9,-12031.4,-16315.9,2390.6,5235.5,4013,4052.2
-13267.7,-11479.6,-12031.5,-16316.2,2387.8,5231.3,4007.4,4048.2
-13268.8,-11485.4,-12033.1,-16320.3,2389.6,5232.4,4009.3,4051.8
-13272.9,-11489.3,-12035.8,-16322.4,2388.9,5232.4,4009.9,4051.8
-13271.9,-11487.8,-12033.4,-16322.4,2388,5225.7,4003.2,4041.7
-13273.9,-11494.6,-12034.4,-16327.4,2388.6,5226,4002.8,4047.1
-13276.8,-11498.7,-12038.4,-16329.6,2388.2,5230.7,4005.2,4054
-13279.2,-11504.5,-12040.2,-16332.9,2391.3,5235.3,4011.2,4059.8
-13279.3,-11508.1,-12040.8,-16335,2392.8,5239,4015.7,4062.6
-13278.4,-11510.2,-12041.1,-16336.6,2393.6,5241.3,4018.3,4064.7
-13276.4,-11516.3,-12041.7,-16338.9,2393.7,5243.3,4022.9,4067.7
-13277.5,-11517.4,-12042.8,-16340.8,2391.4,5243.9,4023.9,4066.8
-13281.9,-11514.1,-12046.8,-16342.2,2385.3,5239.1,4017.8,4060.5
-13281.8,-11512.9,-12048.7,-16342,2385.7,5235.3,4010.9,4057
-13280.7,-11514.7,-12047.8,-16343.9,2385.5,5234.3,4009.5,4058
-13281.7,-11516.9,-12048.8,-16341.4,2386.3,5234.1,4009,4058
-13284.1,-11518.2,-12048.5,-16338.6,2389,5233.4,4008.9,4056.8
-13284.6,-11518.6,-12048.3,-16337.2,2385.3,5232.4,4007.4,4056.3
-13284.2,-11519.9,-12051.5,-16335.9,2383.8,5233.8,4006.4,4057.5
-13282.3,-11523.3,-12055.9,-16337.2,2389.1,5238.5,4012.1,4063.8
-13283.5,-11528.1,-12059,-16339.9,2395.4,5248.3,4024,4077.8
-13284.8,-11526.1,-12054.3,-16340.2,2394.7,5251,4026.3,4077.2
-13282.4,-11524.1,-12052.7,-16340.7,2393.4,5249.2,4023.4,4072.4
-13280,-11524.3,-12054.7,-16342.1,2394.1,5248.3,4022.5,4070.1
-13278.2,-11524.6,-12050.8,-16341.1,2395.3,5248.3,4021.5,4070.2
-13280.9,-11527.3,-12050.3,-16342.9,2396.1,5247.3,4022.6,4070.9
-13279.4,-11527.7,-12052.3,-16342.7,2396.7,5244.6,4020.7,4066.3
-13278.7,-11528.1,-12054.6,-16343.5,2396.5,5241.2,4019.6,4063.4
-13278.9,-11531.4,-12055.2,-16345.5,2396.5,5242,4024.7,4066.9
-13280.5,-11530.2,-12051.4,-16344.7,2396.3,5242,4023.4,4064.8
-13283.6,-11530.1,-12051.2,-16345,2394.9,5239.3,4018.6,4061.4
-13284.6,-11531.3,-12053.2,-16345.3,2393.3,5236.5,4013.4,4057.8
-13285.2,-11533.2,-12054.2,-16343.3,2385.6,5229,4001.9,4049.8
-13287.5,-11533.9,-12056.3,-16343.6,2382.7,5225.8,3996.4,4048.3
-13288,-11540.5,-12058.2,-16348.7,2382.5,5226.7,3998.8,4052.4
-13287.9,-11542.3,-12059,-16350.9,2378.9,5227,3999.1,4053.3
-13288.3,-11536.6,-12056.7,-16349.9,2374.5,5221.8,3992.6,4045.4
-13292.1,-11540,-12057.8,-16352.9,2377.2,5220.7,3993.4,4048.5
-13292.9,-11543.8,-12058.4,-16357.5,2379,5224.1,3997.8,4054.9
-13290.3,-11550.1,-12055.7,-16360.1,2378.2,5226.7,4001.1,4057.9
-13290.6,-11548.5,-12058.2,-16357.5,2380.2,5228.1,4000.3,4057.4
-13289.6,-11550.6,-12060.8,-16356.8,2380.4,5231.6,4006.2,4063.8
-13291,-11554,-12061.4,-16355.6,2378.6,5234.2,4010.9,4067.5
-13292.1,-11551.5,-12062.5,-16355.9,2377.3,5234.7,4013.3,4067.4
-13292.3,-11549.5,-12067,-16359.3,2374.6,5233.3,4014.2,4064.3
-13292.4,-11551.9,-12070.4,-16359,2379,5233.5,4015.1,4062.1
-13294.2,-11555.3,-12069.6,-16360.6,2383.8,5235.3,4019.5,4063.3
-13293.8,-11554.1,-12066.6,-16358.8,2385.7,5236.3,4020.3,4060.7
-13293.7,-11552.9,-12063.1,-16357,2388.7,5236.2,4019.5,4058.9
-13294.6,-11554.3,-12060.4,-16356.8,2387.4,5236.6,4021.3,4059.7
-13295.5,-11554.9,-12060.9,-16357.6,2388.7,5237.9,4024.7,4061.2
-13296.3,-11553.6,-12064.6,-16357.5,2390.3,5241.6,4028.9,4065
-13293.5,-11550.6,-12066,-16354.6,2391.6,5249.5,4033.9,4076.7
-13290.5,-11547.3,-12060.9,-16353.3,2388.2,5251.7,4034.4,4077.3
-13289.5,-11545.9,-12060.6,-16353.1,2389.1,5251.7,4032.6,4073.7
-13289.6,-11550.5,-12060.1,-16355.7,2392.3,5252.2,4033.1,4074.4
-13291.4,-11553.3,-12058.1,-16356.9,2397.6,5255.6,4037.2,4079
-13293,-11552.2,-12059.5,-16356.3,2399.2,5257.1,4038.2,4079.5
-13289.7,-11550.2,-12056.7,-16355.3,2394.9,5254.6,4033.3,4076.6
-13285.1,-11547.6,-12054.9,-16353.6,2388.2,5252.9,4029.5,4076.6
-13285.9,-11550.5,-12059.5,-16355.3,2389.2,5257.7,4037.5,4085.6
-13288.4,-11550.4,-12059.4,-16355.5,2391.1,5260.6,4041.3,4086.1
-13288.7,-11546.8,-12056,-16353.8,2392.1,5258,4039.5,4081
-13288.9,-11546.4,-12054.1,-16354.4,2394.1,5254,4036,4076.4
-13288.4,-11547.4,-12055.3,-16351.4,2389.4,5247,4027.6,4068.5
-13288.2,-11550.1,-12055.9,-16349.9,2388.4,5244.9,4024.6,4066.9
-13291,-11558,-12055.1,-16352.1,2392,5246.4,4028.4,4070.3
-13292.5,-11558.3,-12055.6,-16353,2389.9,5245.9,4028.3,4069.5
-13290.9,-11548.6,-12058.2,-16355.5,2391.3,5238,4020.4,4057.6
-13291.9,-11551.9,-12060.2,-16357.8,2397.8,5235.8,4021,4059.9
-13292.4,-11556.1,-12057.8,-16357.5,2397,5237.8,4022.8,4064.7
-13292.2,-11556.7,-12057.4,-16358,2395.4,5238.1,4022.6,4064.6
-13292.6,-11557.3,-12054.3,-16360,2392.8,5239.7,4020.7,4064.6
-13297,-11556.9,-12053.6,-16360.3,2392.8,5239.9,4017.8,4064.8
-13300.2,-11557.8,-12056.1,-16359.1,2394.2,5240.7,4019,4067.8
-13299.2,-11559.2,-12059.8,-16360,2391.6,5242.3,4023.9,4071.2
-13298.3,-11558,-12060,-16361.7,2382.9,5240.3,4022.2,4067.1
-13298.6,-11557.6,-12059.7,-16359.4,2382.8,5239.1,4018.9,4064.5
-13295.5,-11558.9,-12060.1,-16359.4,2385.1,5240.5,4020.3,4065.5
-13297.9,-11558.5,-12058.7,-16358.3,2387,5240.7,4020.1,4065.2
-13300.4,-11556.7,-12056.7,-16356.3,2390.6,5241.1,4019.5,4065
-13298.5,-11559.1,-12057.1,-16358,2390.1,5242.2,4021.5,4066.6
-13296.7,-11559.5,-12057.9,-16360.3,2391.6,5243.1,4023.1,4067.1
-13299.3,-11563,-12060.3,-16361.4,2394.8,5246,4027.4,4071.5
-13300,-11564.7,-12060.4,-16358.6,2401.7,5254,4035.3,4083
-13300.3,-11562.9,-12058.1,-16356.8,2400.4,5255.4,4036.2,4081.6
-13301.1,-11561.3,-12057.3,-16355.6,2399.5,5253.3,4033.9,4077
-13297.8,-11561.4,-12055.7,-16355.1,2400.2,5251.6,4032.4,4074.3
-13295.3,-11560.5,-12056.3,-16353.2,2399.9,5250,4030.5,4073.5
-13294.8,-11555.8,-12056,-16351.4,2396.4,5246.3,4022.8,4069.8
-13298.1,-11555.6,-12055.6,-16352.4,2397.4,5244.7,4020.3,4068.6
-13299.7,-11557.4,-12056.2,-16353.8,2397.6,5244,4021.2,4069.8
-13301,-11563.1,-12058.1,-16357.4,2398.3,5249.3,4029.4,4079.4
-13301.7,-11561.9,-12057.4,-16357.7,2394.9,5251.5,4031.4,4080.2
-13301.3,-11557.6,-12056.6,-16356,2395.5,5248.4,4028.4,4074.2
-13302.5,-11558,-12058,-16356.4,2399.2,5246.7,4028.5,4070.2
-13303.4,-11560.9,-12059.1,-16356.8,2396.7,5240.1,4019.7,4060.3
-13304.2,-11564.4,-12057.6,-16358.3,2395,5236,4014,4057
-13300.8,-11568,-12055.9,-16361.7,2394.2,5236.3,4018,4062.2
-13297.9,-11569.8,-12055.5,-16362.4,2393.5,5235.6,4020,4060.2
-13297.5,-11566.1,-12056,-16361.3,2392.5,5228.7,4013.7,4048
-13299.9,-11565.7,-12061.9,-16359,2390.7,5226.9,4008.3,4047.9
-13302.7,-11565.9,-12060.6,-16357.2,2388.4,5228.2,4006.9,4053.3
-13301.4,-11568.2,-12056.6,-16358.4,2385,5230.7,4009.7,4060.3
-13299.7,-11568,-12054.3,-16359.6,2384.6,5234.3,4014.3,4062.2
-13301.5,-11568.6,-12056.7,-16360.9,2387.2,5235.6,4017,4059.6
-13301.1,-11567.2,-12058.7,-16363.6,2389.5,5236.7,4017.9,4058.5
-13299.2,-11567.8,-12058.8,-16365.5,2385,5237.2,4017.5,4060.2
-13299,-11570.3,-12059.3,-16368.5,2379.8,5236.7,4018.1,4061.1
-13298.9,-11572.7,-12057.8,-16368.8,2381.1,5236.3,4019,4061.8
-13300.4,-11572.6,-12058.5,-16366.8,2383,5238.1,4021.6,4064.5
-13302.1,-11574.4,-12057.7,-16365.9,2385.2,5240.5,4023.3,4066.9
-13303.3,-11570.5,-12058.9,-16363.3,2390.6,5241.7,4023.2,4065.6
-13304.8,-11570.1,-12062.9,-16364.2,2392.6,5242.8,4025,4066.6
-13304.1,-11570.8,-12062.2,-16367.4,2393.3,5244.8,4027.7,4066.9
-13303.4,-11570.1,-12062.2,-16365.3,2396.6,5248.4,4032.3,4068.6
-13304.8,-11570.2,-12064.6,-16362.8,2401,5256.3,4041.2,4079.7
-13299.9,-11566.1,-12063.7,-16360.4,2398.2,5258.5,4041.7,4079.1
-13297.2,-11563.1,-12063.8,-16358.4,2399.2,5254,4036.1,4072.8
-13298.5,-11561.1,-12063.1,-16357.9,2400.4,5251.2,4032.5,4069.3
-13296.4,-11559.6,-12058.1,-16357.5,2399.7,5252.6,4032.3,4072.3
-13296.4,-11561.6,-12056.2,-16359.3,2399.2,5252.7,4033.7,4071.2
-13295.2,-11559.9,-12055,-16358.9,2397,5250.7,4030.1,4067
-13294.8,-11561.8,-12056.8,-16360.4,2396,5249.7,4029,4067.4
-13295.7,-11568,-12062.3,-16363.1,2398.5,5254.2,4035.4,4075.2
-13296.6,-11564.8,-12062,-16362.1,2398.1,5254.7,4033.3,4073.9
-13298.6,-11563.6,-12062.2,-16363.5,2396.4,5252.5,4028.7,4071.3
-13298.6,-11564.9,-12061.7,-16363.6,2396.2,5250,4024.9,4068.5
-13298.7,-11567.7,-12062.1,-16362.9,2393.2,5243.7,4019.5,4058.7
-13298.5,-11569.7,-12063.3,-16363.9,2393.3,5242.5,4018.7,4057.2
-13299.4,-11572.9,-12065.1,-16366,2392.6,5243.8,4021.2,4061.8
-13299.6,-11571.4,-12062.9,-16366.4,2390,5241.9,4020.1,4059.7
-13297.5,-11563.3,-12062.2,-16368,2386.8,5235.4,4013,4051
-13297.8,-11565.4,-12063.9,-16369.8,2388.5,5234.5,4013.6,4054.8
-13297,-11570.6,-12063.5,-16366.6,2387.8,5237.3,4015.9,4061.1
-13295.7,-11569.4,-12064.2,-16361.8,2384.9,5238.4,4015.5,4062.9
-13293.6,-11565.2,-12063.6,-16359.7,2384.4,5238.2,4015.9,4062.3
-13293.2,-11564.6,-12062.3,-16360.2,2386,5238.1,4018.2,4061.5
-13294.6,-11565.7,-12059.4,-16362,2384,5237.6,4018.2,4061.2
-13294.3,-11564,-12058.9,-16363.9,2381.4,5237.6,4016.1,4061.1
-13291,-11568.4,-12064.8,-16369,2380,5238.6,4019.7,4062.3
-13291.3,-11573.5,-12067,-16368.6,2383.7,5238.5,4020.9,4061.1
-13291.5,-11573.2,-12066.1,-16365.7,2383.9,5237.5,4018.4,4060.4
-13290.8,-11570.5,-12062.3,-16362.3,2382.2,5235.2,4015.4,4058.5
-13292.2,-11566.8,-12058.6,-16359.1,2385.9,5234.7,4014.2,4057
-13294.5,-11570.1,-12058.3,-16361.1,2387.3,5237.5,4018,4061.1
-13296.1,-11572.8,-12060.5,-16362,2389.6,5241.1,4023.2,4064.1
-13296.5,-11573.6,-12064.7,-16360,2395.1,5244.7,4029.8,4068.5
-13296.8,-11571.9,-12067.5,-16357.9,2401.2,5252.2,4039.5,4079.5
-13295.1,-11566.6,-12063.8,-16356.3,2400.9,5254.4,4041.4,4079
-13290.7,-11561.9,-12061.3,-16354.3,2395.4,5252.3,4036.1,4075.3
-13288.1,-11560.9,-12058.4,-16353,2392.4,5250,4031.3,4071.5
-13284,-11563.1,-12052.9,-16352.6,2395.7,5250.3,4030.9,4070.4
-13284.2,-11564,-12050.7,-16352.6,2395.7,5249.7,4029.3,4067.7
-13283,-11562.3,-12052.2,-16353.6,2398.1,5249.4,4027.4,4065.7
-13282.1,-11565.1,-12055.6,-16357.9,2398,5251.8,4031.1,4070.3
-13283.4,-11568,-12058.9,-16360.1,2397.6,5256.4,4037.9,4077.6
-13284.4,-11566.6,-12055.7,-16359.4,2398.7,5257,4040.2,4076.3
-13286.4,-11563.4,-12053.7,-16357.2,2399.3,5255.2,4037.5,4072.8
-13285.3,-11561.1,-12053.3,-16355.6,2398.9,5252,4032.6,4069.2
-13284.5,-11562.1,-12056.4,-16353.7,2392.9,5244.1,4022.9,4059.9
-13282.6,-11561.7,-12058.4,-16353.3,2393.4,5240.6,4018.8,4056.5
-13282.6,-11564.6,-12059.7,-16354.1,2392.8,5242,4021.7,4060.6
-13285.2,-11562.9,-12063.4,-16351.9,2391.2,5243.1,4021.9,4062.7
-13285.8,-11556.8,-12062.3,-16350.4,2387.1,5237.9,4013.9,4056.4
-13288.3,-11559.2,-12063.6,-16353.4,2389.8,5237.9,4013.1,4061.3
-13288.2,-11563.5,-12065.2,-16355.5,2395.1,5244,4020.8,4066.8
-13288,-11565.4,-12063.1,-16357.4,2394.1,5247.2,4025.2,4068.6
-13285.6,-11563.7,-12060.3,-16357.4,2392.6,5248.3,4024.8,4067.1
-13283,-11565.4,-12060.2,-16357.8,2390.4,5249.8,4024.5,4067.7
-13281.1,-11566.7,-12058.9,-16356.8,2391,5250.1,4024,4066.6
-13283.5,-11567,-12059.8,-16358.7,2393,5250.6,4027.8,4066.4
-13283.6,-11565,-12061.7,-16361,2386.3,5247.7,4025.9,4061.8
-13281.5,-11564.2,-12060.5,-16362,2386.4,5245.1,4021.6,4059
-13280,-11563.8,-12061.6,-16362.6,2387.5,5243.7,4019.2,4059.2
-13279.3,-11566,-12062.9,-16360.3,2390.2,5245.2,4022.4,4062
-13279.5,-11567.3,-12063,-16358.7,2392.4,5246.6,4023.5,4063.1
-13276.6,-11565.1,-12062.1,-16358.2,2390.6,5245.2,4022,4062.6
-13276.8,-11565.5,-12060.5,-16357.7,2390.2,5245.7,4023.7,4063
-13279.9,-11562.5,-12061.6,-16355.5,2393.6,5247.9,4025.9,4065.5
-13283.4,-11562,-12062.5,-16355.8,2401.8,5255.2,4034.1,4076
-13280,-11559.9,-12058.1,-16355.8,2402.4,5256.1,4036.4,4073.6
-13276.6,-11555.9,-12054.6,-16354.9,2399.9,5252.8,4032.8,4067
-13274.7,-11553.7,-12050.5,-16354.8,2399.4,5251.2,4029.5,4064.4
-13276.5,-11555.2,-12048.6,-16353.7,2400.6,5253.8,4031,4068.4
-13280.7,-11555,-12053.2,-16350.9,2401.2,5255.2,4031.3,4069.5
-13280.8,-11555.3,-12054.1,-16349.3,2402.1,5254.3,4029,4067.5
-13282.1,-11558.4,-12054.3,-16351.3,2401.8,5254.3,4030.2,4068.1
-13282.7,-11561.3,-12058.3,-16354.1,2402.3,5256.9,4035.8,4072.8
-13283.5,-11559.7,-12058.9,-16354.5,2403.5,5256.1,4035.3,4070.8
-13284.5,-11558,-12058.1,-16352.7,2404.7,5253,4031,4064.7
-13286,-11557.4,-12057.9,-16351.7,2403,5249.5,4025.3,4060.8
-13285,-11559.9,-12059,-16351.7,2395.5,5243.2,4016,4054.1
-13284.9,-11561.2,-12060.5,-16351.8,2392.6,5240.5,4011.6,4051.7
-13287.2,-11564.4,-12061.8,-16353.7,2395.9,5242.4,4015.2,4056.8
-13288.9,-11566.3,-12061.7,-16354.1,2395.1,5244.2,4018.4,4058.9
-13288.7,-11561.3,-12060.1,-16354,2391.2,5239.5,4012.3,4051.1
-13290.2,-11566.2,-12060,-16358.3,2393.8,5240.4,4013.5,4055.5
-13293.5,-11567.9,-12060.6,-16358.5,2394.6,5243.6,4017.6,4060.6
-13297.8,-11567.7,-12062,-16357.6,2395,5247,4020.3,4065.4
-13295.3,-11567.1,-12063.8,-16357.3,2395.3,5251,4023.9,4069.8
-13291.7,-11566.1,-12066.9,-16357.2,2394,5253.1,4025.6,4071.1
-13291.5,-11567.8,-12066.6,-16359,2394.4,5252.8,4025.9,4069.6
-13292.5,-11568.8,-12066.6,-16362.3,2394.4,5252.4,4026.1,4068.4
-13291.2,-11570.2,-12066.7,-16365.7,2387.4,5249.8,4023.6,4065.6
-13290.4,-11570.2,-12065,-16364.1,2385.3,5248,4019.5,4064
-13291.5,-11569.4,-12062.7,-16365.7,2387.4,5248.4,4020.9,4065.7
-13292.9,-11566.1,-12060.4,-16366.7,2389.7,5248.6,4021,4065.1
-13293.5,-11566.2,-12061.7,-16363.4,2394.1,5248.8,4020.6,4064.9
-13292.2,-11568.7,-12063.4,-16360.5,2394,5250.6,4023.8,4070
-13291.8,-11571.8,-12064.4,-16360.3,2393.9,5252.4,4028.3,4073.3
-13292.1,-11571.5,-12065.9,-16358.5,2396.8,5255.4,4033.5,4075.7
-13293.6,-11568.3,-12065.5,-16356.1,2401.9,5261.9,4041.7,4084.4
-13288.9,-11559.9,-12061,-16353,2396.9,5261.6,4039.6,4080.2
-13285.2,-11556.3,-12060.3,-16351.5,2396.3,5258.4,4035.8,4074.5
-13283.7,-11555.8,-12059.4,-16350.2,2397.4,5255.4,4032.2,4070.2
-13281.3,-11558.9,-12055.7,-16350.8,2401.2,5254.9,4032.3,4070.1
-13281.4,-11560.2,-12052.4,-16350.3,2399.6,5253.9,4031.1,4069.2
-13283.9,-11558.9,-12051.7,-16348.8,2398.8,5252.8,4028.4,4066.8
-13286.1,-11559.8,-12054.1,-16349,2399.5,5252.1,4028.8,4067.1
-13286.8,-11564.8,-12056.1,-16350.8,2399.1,5255.8,4035.6,4075.1
-13290.6,-11562.1,-12054.2,-16351.2,2400.7,5255.8,4036.5,4072.6
-13290.2,-11558.9,-12052.6,-16352.3,2403.7,5253.7,4036.3,4069.5
-13286.6,-11559.4,-12051.9,-16352.4,2403.8,5251.8,4035.8,4066.3
-13285,-11560.3,-12051.2,-16351,2397.6,5243.5,4024.9,4055.4
-13284.6,-11559.9,-12053.2,-16351.7,2395.6,5239.2,4017.8,4050.8
-13287.1,-11559.8,-12055.5,-16356.7,2397.3,5239.4,4017.4,4053
-13287,-11558.2,-12055.2,-16361.1,2395.3,5238.6,4014.5,4053.1
-13288.8,-11556.2,-12053.4,-16357.2,2391.4,5232,4006.8,4044.6
-13291.9,-11563.9,-12050.1,-16354.8,2391.2,5231.8,4005.3,4047.9
-13292.3,-11569.6,-12051.5,-16355.1,2392.2,5236.8,4011.4,4056.3
-13291.1,-11570.2,-12053.8,-16356,2392.4,5239.7,4016.8,4058.3
-13289.2,-11565.6,-12055.7,-16355.8,2394.1,5239.7,4017.3,4055.4
-13291.2,-11563.8,-12060.4,-16357,2395.7,5239.7,4017.4,4053.5
-13292.1,-11565.1,-12059.4,-16357.8,2394.9,5240.8,4017.9,4054.9
-13292.9,-11567.6,-12059.3,-16357.2,2391.9,5241.2,4017.8,4055.5
-13296.9,-11569,-12062.4,-16357.4,2386.6,5240.5,4017.4,4055.8
-13297.8,-11569.3,-12062.6,-16355.6,2387.2,5241.3,4018.6,4057
-13298.4,-11567,-12062.4,-16353.5,2386.5,5243.6,4020.3,4061
-13299.3,-11565.6,-12063,-16353,2385.1,5244.9,4020.8,4064.3
-13297.7,-11563.9,-12063.6,-16352.5,2388.1,5246.2,4021.3,4064.7
-13298,-11563.8,-12064.3,-16352.8,2389.8,5248.7,4023.2,4066.5
-13297.6,-11565.1,-12063.4,-16353.8,2389.9,5250.9,4025.4,4067.7
-13295.9,-11563,-12065.5,-16351.7,2389,5252.3,4024.2,4067.9
-13297.6,-11562.2,-12071.6,-16349.2,2395.3,5259.6,4030.5,4078
-13295.1,-11561.2,-12066.1,-16348.4,2392.9,5259.4,4030.4,4077
-13291.5,-11556.3,-12060.2,-16346.2,2390.3,5254.3,4023.9,4069.5
-13289.4,-11556.1,-12058.1,-16347.3,2388.6,5250.2,4020.5,4066.2
-13289.8,-11556.9,-12058.7,-16349.3,2392,5250.6,4021.6,4067.6
-13290.2,-11556.7,-12059.5,-16351.8,2394.6,5250,4022.2,4066.1
-13290.9,-11555.8,-12058.7,-16348.8,2391.8,5248.2,4017,4063.4
-13292.8,-11557.5,-12059.7,-16347.5,2391.8,5246.8,4016.4,4062.6
