EEG1,EEG2,EEG3,EEG4,EEG5,EEG6,EEG7,EEG8
0,0,0,0,0,0,0,0
2993.1,3306.4,4125.2,7324.2,5410.9,12819.6,8852.7,8690.9
2996.2,3305.7,4136.4,7324.2,5414.7,12835.1,8858.9,8707
2995.9,3307.9,4159,7342.3,5410.2,12861.2,8859.7,8731.4
2992.7,3311.8,4182.1,7368.2,5401.4,12888.6,8856.7,8755.5
2993.6,3315.7,4194.9,7381.8,5389.9,12901.6,8849.8,8765.8
3016.6,3327.6,4178.1,7374.2,5369.6,12873,8838.7,8735.2
3025.4,3331.9,4152.3,7347.9,5375.6,12845.1,8843.5,8708.3
3028.8,3327.8,4126.7,7320.9,5395.9,12818.6,8855.8,8684.4
3030.3,3325.7,4115.6,7306.5,5409.9,12806.3,8868.7,8674.2
3012.2,3326.3,4133.6,7313.2,5409.9,12826.8,8877.9,8694.6
2980.4,3318.2,4158.4,7333.2,5435.3,12867.7,8890.3,8733.4
2963.1,3310.9,4199.8,7374.8,5435,12916.8,8886.6,8780.6
2955.5,3309.8,4232.1,7411.7,5413,12951.7,8870.1,8811.9
2950,3310.5,4230.8,7419.9,5403.1,12948.8,8857.6,8806.5
2947.1,3308.9,4211.8,7407.1,5404.4,12925.2,8851.6,8784.1
2947.4,3305.7,4186,7385,5412.3,12895.4,8850.9,8756
2953.8,3297.6,4150.4,7352.7,5423.8,12852.2,8857.1,8716.2
2968.1,3286.3,4138.6,7332.7,5426.2,12834.8,8869.5,8701.6
2973.3,3288.9,4145,7336.9,5425.7,12844.4,8874.1,8710.2
2974.2,3289.2,4162.6,7348.9,5419.8,12866,8873.6,8730.2
2971.2,3290.1,4189.5,7370.2,5407.2,12898.5,8867.5,8759.3
2965.1,3292.2,4201.3,7384.7,5399.7,12916.1,8859.6,8773.1
2962.6,3293.6,4190.4,7381.4,5402.3,12902.7,8857.1,8758.4
2965.8,3296.8,4173,7368.7,5410.3,12875.6,8859.3,8732.4
2973.3,3297.6,4146.2,7344.9,5428.6,12842.6,8869,8701.6
2981.4,3295.5,4124.5,7322.6,5459.3,12823,8887.6,8685.3
2983.2,3294,4128.6,7322.6,5467.7,12828.5,8896.3,8692.8
2983.4,3295.8,4146.1,7336.6,5460.6,12848,8896.9,8711.7
2981.7,3299.4,4172.6,7359.8,5446.9,12876.9,8892.6,8738.7
2980.3,3303.6,4195.4,7381.2,5433.8,12899.2,8885.3,8757.7
2977.9,3305.1,4199.3,7386.9,5428.6,12902.6,8880.6,8758.8
2976.8,3303.5,4185,7375.9,5432.7,12887.5,8881.1,8743.8
2979.8,3298,4161.7,7355.4,5438.3,12858.9,8882.4,8716.5
2997.1,3287,4133.5,7332.8,5436.2,12826.2,8881.1,8686.9
3009,3288.6,4125.5,7322.5,5437.7,12816.8,8885.5,8680.1
3010,3293.7,4135.9,7327.4,5437.8,12829.1,8889.9,8692.5
3013.9,3301.2,4156,7345.2,5426.6,12849,8887.4,8711.7
3034.1,3317.8,4174.9,7364.6,5391.9,12862.4,8873.5,8721.7
3038.5,3323.6,4182.6,7369.1,5380.3,12873.1,8869.8,8730
3035.1,3320.2,4172.3,7361.6,5387.5,12865.2,8872.7,8721.8
3031.1,3317.2,4155.9,7348,5397.6,12847.3,8879,8705.5
3014.3,3318.2,4136.5,7328.8,5410.7,12825.6,8890.7,8686.2
2988.9,3308.1,4120.8,7311.7,5455.2,12818.2,8913.9,8681.8
2981.6,3297.7,4129.5,7319.8,5474.8,12830,8924.8,8696.2
2985.5,3296.6,4149.2,7338.6,5467.2,12849.8,8922.7,8714.5
2987.1,3302.4,4176.5,7363.5,5451.5,12879,8916,8740.7
2984.5,3306.3,4199,7384.5,5436.1,12903.8,8907,8762
2981.1,3306.7,4202.2,7391.7,5428.4,12907.4,8899.8,8763.1
2980.5,3302.7,4190,7383.9,5427.7,12891.1,8896.9,8747.4
2985.5,3294,4169.1,7364.4,5429.9,12865.2,8900.2,8723.3
2990,3293.7,4145.3,7340.6,5440.4,12838.9,8905.7,8699.5
2995,3296.7,4135,7330.3,5449,12826.2,8910.7,8689.6
2997.9,3301,4146.6,7338.3,5447.6,12839.1,8911.5,8703
2997.3,3306.9,4165.6,7354.2,5442.2,12861.9,8908.5,8724.1
2993.9,3309.4,4192.9,7376.7,5429.4,12893.1,8901.5,8752.2
2988.1,3310.5,4209.6,7393.4,5417.9,12914,8893.6,8769.2
2984.1,3310,4200.4,7389.9,5420.3,12907.1,8890.7,8761.2
2982.8,3307.7,4180.5,7373.7,5441,12887.2,8896.4,8742.8
2981.7,3305.2,4157.5,7354.3,5457,12859.6,8902.1,8718.1
2984.7,3306.3,4140.7,7337.8,5466.4,12837.4,8907.5,8699
2987.6,3309.6,4143.8,7336.8,5466.3,12839.2,8909.7,8702
2988.1,3311.7,4159.5,7349.7,5458.4,12857.9,8907.2,8718.4
2987.1,3315.1,4184.3,7371.5,5447.2,12885.7,8902.9,8743.7
2982.1,3318.6,4206.8,7392,5434.2,12911.2,8895.3,8766.8
2978.7,3319.3,4208.2,7397.2,5426.1,12914,8887.8,8766.9
2990.6,3312.6,4191.4,7385.3,5417.8,12894.1,8879.2,8747.4
2998,3314.3,4168.4,7366.9,5423.2,12868.4,8879.4,8723.8
3000.8,3319.4,4141.3,7346.6,5439.8,12836.9,8887.8,8695.6
3011.8,3324.6,4129.8,7331.7,5446.4,12820.1,8894.8,8681.9
3039.5,3340.8,4133.3,7332.3,5424.1,12814.5,8890.1,8676.4
3048.3,3347.3,4144.8,7335.7,5415.8,12830.2,8891.7,8690.7
3045.1,3345.6,4169.1,7352,5410.8,12862.6,8892.6,8720.8
3036.2,3344.6,4185.8,7367.5,5403.9,12883.8,8891.2,8739.6
3012.6,3346.4,4187.7,7370.1,5402.7,12887.6,8892.7,8740.9
2981.8,3335.1,4174.6,7359.3,5441,12883.3,8907.9,8737.2
2972.3,3322.1,4154,7348.9,5467.8,12861.7,8917.5,8719.2
2979.3,3319.2,4136.9,7337,5475.5,12839.9,8922.3,8700.3
2986.4,3322.1,4138,7336.7,5474.3,12839.3,8924.7,8700.9
2989.3,3323.3,4154.8,7347.7,5465.4,12857.6,8922.5,8718.7
2989.1,3324.5,4178.4,7368.2,5452.1,12885.7,8916.5,8744.1
2986.7,3323.9,4200.5,7389.5,5436.1,12911.4,8908.4,8767.1
2986.2,3317.1,4207.1,7396.3,5422.5,12918.9,8902.3,8772.5
2984.6,3317.3,4195,7389.6,5423.3,12905.2,8898.7,8758.1
2985.6,3317.8,4173.4,7372.9,5432.9,12880.6,8900.1,8734.1
2988.8,3318.8,4151.1,7353.5,5445.7,12854.8,8904.7,8710.6
2993,3322.3,4138.8,7340.8,5457.4,12840.9,8909.8,8699.3
2995.9,3324,4147,7343,5457.9,12849.3,8912.2,8708.6
2996.4,3325.8,4166.7,7357.1,5449.9,12871,8910.5,8729.4
2993.2,3328.1,4192.6,7379.4,5440.1,12901.9,8905.7,8758.1
2986.7,3327,4206.1,7394.8,5444,12922.1,8904.1,8777.1
2977.6,3323.6,4205.5,7399.2,5443.8,12920.5,8898.8,8774.4
2973,3322.2,4192.4,7391.9,5444.3,12903.1,8894.7,8757.1
2973,3321.1,4168.5,7375.5,5451.3,12875.3,8895.5,8730.8
2976.6,3319.8,4149.7,7356.6,5459.7,12851.4,8899.1,8710.4
2980.7,3320.2,4150.4,7349.5,5461.6,12849.4,8902.2,8710.1
2981.4,3321.3,4166.5,7360.7,5453.9,12866.7,8900.3,8726.3
2980.4,3320.3,4188.7,7378,5438.6,12892,8893.1,8749.7
2988.5,3313.5,4208,7396.3,5412.1,12915.2,8877.1,8769.6
2988.5,3315.5,4215.3,7405.8,5399.4,12925.4,8866.4,8776
2981.4,3317.9,4203.5,7397.4,5403.9,12912.8,8864.6,8763.3
2984.1,3319.8,4181.9,7380.1,5409.7,12886.7,8864.8,8739.1
3010.5,3331.5,4148,7352,5401.6,12838,8861.5,8692.6
3022.3,3334.3,4130.3,7326.9,5407.5,12816.1,8868.3,8673.6
3024.2,3331.6,4138.2,7327,5412.8,12826.9,8874.8,8685.3
3020.1,3330.8,4158.4,7341.3,5408.9,12850.7,8876.9,8708.1
2996.7,3335.1,4192.1,7366.6,5397.4,12888.8,8875.5,8743.6
2960.2,3328.4,4210.5,7385.4,5421.2,12920.3,8883,8773.1
2943.7,3317.2,4214.8,7398.1,5434.8,12927.2,8882.9,8779.9
2944.8,3314.2,4201.8,7393.1,5436.7,12907.4,8878.6,8761.1
2949.5,3315.2,4179.1,7375.3,5442.9,12879.5,8879,8734.6
2955,3314.9,4156.7,7354.7,5452.7,12853.5,8883.3,8711.2
2961.1,3314.6,4154,7346.7,5456.7,12848.9,8886.9,8708.1
2965.2,3312.5,4167,7355,5450.4,12863.7,8887.1,8722.6
2970,3308.3,4187.8,7370.7,5436.1,12888.1,8885.2,8744.1
2966.8,3312,4211.5,7392.2,5422.8,12917.3,8877.7,8769.1
2961.7,3315,4219.4,7403.6,5416.5,12928,8870,8777.8
2958.5,3316.7,4209.5,7398.1,5419.4,12916.7,8866.3,8766.1
2957.6,3319.7,4190.7,7383.3,5428.7,12895.6,8865.7,8746.4
2960.3,3318.7,4162.9,7359,5442.5,12864.7,8870.9,8718.4
2965.5,3317.5,4148.2,7343.2,5452.2,12846.4,8876.8,8703.1
2969.7,3317.6,4155.8,7345.1,5454.9,12854.3,8880.6,8712.3
2969.8,3317.3,4170.3,7356.7,5463.3,12875.4,8884.9,8732.1
2963.4,3318.1,4196.3,7381.1,5455.8,12905.2,8880.5,8759.6
2956.6,3320,4215.5,7400.7,5442.6,12927.5,8871.7,8778.8
2951.2,3320.2,4216.6,7405.3,5436,12930,8864.6,8779
2948.2,3319,4203.6,7397.5,5436.6,12914.1,8860.2,8763.1
2949,3317.6,4180,7377.7,5444.9,12885.7,8861.8,8736.7
2952.7,3316.7,4158.9,7355.6,5454.5,12859.6,8867.1,8713.9
2958.8,3314.9,4151.4,7344.4,5457,12849.5,8869.8,8706.3
2974.1,3308.2,4160.3,7351.6,5440.6,12859.6,8862.5,8716.1
2979.4,3312.1,4182,7369.1,5426.9,12885.3,8856.6,8740
2972.3,3318.1,4205.1,7387.9,5417.2,12912.5,8851.2,8765.3
2970.5,3323.9,4216.1,7401.3,5405.1,12922.9,8842.2,8773.8
2991.2,3338.9,4197,7390.2,5385.8,12892.5,8831.3,8742.1
2999,3344.3,4170.2,7361.9,5391.6,12863.2,8835.2,8714.5
3001.5,3340.8,4143.4,7334.1,5411.4,12835.4,8845.9,8689.8
3002.5,3340.6,4125.9,7319.6,5427.1,12814.6,8857.5,8672.9
2987.9,3345.1,4137.1,7321.5,5430.6,12827.2,8867.7,8687
2960.6,3339.2,4156.2,7335,5459.5,12860.5,8883.3,8720.4
2948.2,3332,4187.6,7364.5,5465.2,12899.3,8884.5,8758.2
2946.1,3333.2,4208.9,7387.7,5451.7,12922.5,8874.8,8779.1
2944.7,3337.5,4209.7,7395.4,5443.7,12921.7,8867.1,8775.8
2944.6,3337.9,4195.7,7384.7,5444.7,12903.2,8864.4,8756.7
2947.1,3335.6,4173.8,7367,5452.5,12876.3,8865.8,8731.5
2953.5,3331.3,4149.5,7345.1,5462,12847.1,8871.8,8705
2963.6,3324.8,4144.1,7334.5,5461.7,12838,8878.8,8697.6
2967.7,3327.1,4156.8,7343.6,5457.4,12852.5,8880.1,8711.7
2967.9,3329.3,4176.3,7360.2,5449.6,12876.2,8877,8733.4
2964.6,3331.8,4202.5,7384.8,5436.7,12907.3,8869.2,8761.6
2959.7,3335.4,4215.8,7400.6,5429.4,12923.2,8860.5,8775.7
2956.1,3333.3,4205.4,7393.6,5431.5,12912.1,8857.3,8764.1
2956,3331.8,4186.8,7378.1,5438.5,12890.9,8858.8,8743.7
2959,3330.2,4158.2,7354.1,5454.3,12860.9,8866,8716.2
2963.8,3327.1,4139.5,7334,5480,12843,8880.5,8702
2965.3,3324.9,4147.1,7335.7,5486,12850.7,8886.9,8710.7
2965.3,3325.7,4164.5,7350.1,5478.9,12871.5,8886.7,8729.9
2963.6,3326.9,4188.4,7371.7,5466.2,12900.4,8882.4,8756.2
2958.8,3327.1,4209.4,7392.5,5452.3,12925.1,8874.6,8777.6
2953.3,3325.6,4213.5,7398.7,5444.4,12931,8867.7,8780.5
2950.5,3323,4200.5,7389.6,5446,12916.8,8865.2,8766.1
2952.5,3318,4174.8,7368.9,5452,12887.8,8866.3,8738.4
2969.8,3308.3,4144.4,7343.7,5451.3,12853.1,8865.2,8706.6
2981,3311.3,4136.9,7334,5453,12843.4,8868.6,8699.4
2981.4,3317,4147.4,7339.4,5453.5,12854.1,8872.5,8711.6
2984.7,3322.7,4170.1,7357.8,5440.3,12876.1,8868.7,8732.3
3004.9,3337.6,4188.7,7375.9,5404.6,12888.7,8853.1,8740.4
3007.2,3343,4197.3,7380.6,5391.3,12901.2,8846.9,8749.1
3002.3,3338.5,4187.8,7375.1,5397,12894.6,8848,8740.8
2997.3,3333.7,4168.3,7359.6,5407.9,12872.9,8853.1,8720.4
2979.8,3333.6,4150.5,7340.8,5420.2,12851.8,8863.5,8702.2
2954.1,3322.4,4135.4,7323,5463.6,12843.5,8884.4,8697.7
2946.8,3312.6,4146.1,7333.1,5481.5,12855.1,8892.7,8712.9
2950.1,3314.1,4165.4,7352.9,5472.7,12873.2,8889.3,8730.8
2950.3,3319,4192.5,7377.1,5455.7,12901.1,8881.3,8756.2
2946.7,3320.7,4213.7,7396.8,5438.9,12925,8870.8,8776.6
2941.8,3320.5,4217.9,7404.1,5429.5,12930.4,8861.7,8779.6
2940.5,3315.2,4204.7,7393,5428.4,12914.3,8857.7,8763.8
2946.2,3306.9,4181.9,7372,5430.9,12887,8860.5,8738.2
2951.1,3308.4,4158.6,7353.7,5441.4,12858.3,8864.9,8712.8
2955.8,3311.6,4147.5,7344.6,5449.4,12843.5,8869.4,8701.1
2959.1,3315.7,4159.7,7348.5,5447.8,12857.5,8870.2,8715.2
2958.6,3321.1,4181.3,7362.7,5440.6,12882.9,8866,8738.7
2955.3,3323.7,4206.6,7383.2,5427.6,12912.1,8859.1,8765.1
2949.9,3324.1,4220.8,7398.5,5417.2,12930.1,8851.4,8780.7
2946.5,3322.9,4212.3,7394.5,5420.1,12923,8848.6,8772.6
2946,3320.2,4190.9,7377.4,5441.9,12901.6,8855.3,8752.9
2946.2,3318.2,4167.3,7357.1,5457.9,12872.8,8861.4,8727.4
2950.4,3319.9,4149.3,7339.6,5467.8,12850.1,8867.9,8707.9
2954.2,3322.3,4151.9,7337.9,5468.9,12850.9,8871.2,8710.4
2955.9,3324.2,4167.3,7350.4,5462,12867.7,8869.8,8726.4
2954.4,3327.4,4193.1,7371.9,5448.7,12896.7,8865.3,8753.5
2949,3328.9,4217.2,7394.5,5433,12925.7,8857.1,8778.9
2944.9,3325.8,4215.7,7398.7,5424.5,12926.2,8849.3,8777.5
2956.5,3315,4199.1,7386,5414.3,12905.5,8839.7,8757.1
2964.8,3315.6,4176.9,7367.6,5419.1,12877.8,8838.7,8730.9
2967.9,3319.7,4151.3,7342.6,5435.4,12846,8847.1,8703.2
2978.7,3324.6,4138.6,7328.9,5442.4,12826.7,8854.3,8686.9
3007.1,3340.8,4139.3,7327.7,5422.1,12817.9,8851,8677.4
3017,3347.8,4146.6,7327.2,5415.9,12828.6,8854.4,8686.9
3017.2,3346.3,4160.3,7335.5,5416.5,12848.7,8859.3,8705.8
3013.1,3346.6,4174.8,7346.3,5415.3,12865.5,8863.1,8721.2
2992.1,3349.1,4181.5,7351.2,5413.6,12874.1,8867.4,8728
2961.5,3338.8,4173.1,7344.3,5450.5,12877.7,8884.1,8730.7
2951.6,3328.3,4158.2,7342.3,5475.1,12861.9,8892.7,8717.3
2957.6,3325.2,4148.6,7336,5478.9,12846.6,8894.9,8705.6
2963.5,3327.9,4155.2,7341,5475,12851.8,8895,8713.9
2965.1,3330.1,4172.3,7354.6,5465.1,12870.8,8891.4,8733.2
2962.1,3332.6,4197.9,7376.3,5449.7,12900.1,8882.9,8760.3
2958,3331.4,4219.2,7395.2,5433.4,12925.4,8873.2,8782.4
2957.1,3323.9,4221,7399.5,5421.5,12929.3,8867.4,8784.1
2954.4,3323,4205.2,7390,5423.4,12912.9,8864.4,8766.8
2955.2,3322,4181,7369.8,5433.8,12886,8866.2,8740.7
2958.7,3322.9,4156.6,7349.7,5447.4,12858.6,8871.4,8715.4
2962.5,3325.6,4145.5,7338,5457.9,12845.8,8875.8,8705.6
2964.5,3325.3,4156.2,7341,5457,12856.5,8877.1,8717.5
2964.2,3325.4,4176.7,7356.2,5448.5,12880.8,8874.4,8740.1
2963.3,3329,4202.1,7377.7,5439.4,12907.9,8869,8764.7
2960.5,3330.5,4216.7,7392.3,5444.3,12924.9,8867,8779.6
2953.9,3328.8,4215.4,7395.6,5446.2,12922.9,8863.4,8776.6
2950.1,3326.2,4200.2,7385.6,5447.7,12905.2,8861.3,8758.9
2950.5,3322.5,4176,7365.6,5454.9,12877.7,8862.9,8733
2953.2,3319.6,4156.2,7347,5462.3,12855.8,8866.4,8714.2
2957.8,3322.1,4156.8,7343.9,5463.3,12853.3,8869.2,8714
2959.4,3326.2,4171.7,7355.7,5456.6,12869.6,8867.5,8729.9
2959,3327.8,4192.1,7375.4,5442.7,12892.4,8861.1,8751.8
2967.6,3323.4,4211.5,7396.9,5415.9,12914.3,8845.3,8771.3
2970.9,3326.6,4216.5,7403.2,5405,12921.8,8836.1,8776.2
2967.2,3330.9,4204.6,7391.3,5411,12906.7,8836.3,8761.7
2971.6,3334.1,4184.4,7374.2,5417.2,12878.3,8837.3,8735.6
2998.5,3345.1,4151.8,7346.4,5408,12831.6,8834.9,8691.3
3010.4,3348.8,4132.2,7320.3,5414.5,12810.2,8843.4,8673.3
3012.9,3347.4,4139.1,7319.9,5421.5,12820.7,8852.1,8685.4
3009.6,3347.7,4158,7334.1,5419.9,12843.6,8856.2,8707.6
2987.6,3351.9,4189.3,7358,5410.9,12881.1,8858,8742.4
2952.7,3343.8,4210.5,7377.4,5433.4,12916.4,8866.1,8775.4
2936.7,3332.6,4212.7,7388.5,5448,12921.2,8867.1,8781
2937.5,3328.6,4199.6,7383.1,5449.7,12903.7,8864.5,8764.5
2942.4,3328.9,4173.6,7363.6,5457.4,12873.2,8867,8735.2
2948.8,3326.8,4152.8,7342.4,5466.5,12848.4,8872.7,8713.5
2954.4,3325.4,4154,7338.3,5467.6,12848.4,8876,8715.4
2958.9,3323.8,4166.4,7346.3,5461.2,12861.4,8876.4,8728.6
2963.4,3319.6,4187.5,7363.3,5445.7,12884.6,8874.5,8749.7
2960.6,3322.7,4210.6,7384.3,5432.4,12913.8,8867.9,8774.8
2956.3,3324.7,4219.4,7393.7,5425.6,12925.7,8861.2,8783.6
2954.6,3325.2,4207.3,7386.9,5429.4,12912.5,8858,8770.4
2954.6,3327.6,4187.6,7373.2,5439.5,12890,8857.9,8749.5
2957.8,3327,4161,7350.9,5452.2,12857.2,8862.3,8720.2
2963.3,3327.3,4148,7336,5460.8,12839.9,8868.5,8705.3
2967.6,3328.7,4155.7,7338.7,5463.7,12848.7,8872.7,8714.6
2968.5,3328.8,4170.3,7350.3,5472.7,12870.2,8877.8,8735.3
2963.2,3329.7,4198.1,7373,5466.3,12902.7,8874.3,8765.9
2956,3330.1,4218.4,7393.4,5452.9,12926.5,8865.5,8786.2
2951,3329.1,4216.4,7396.3,5448.1,12923.6,8859,8781.7
2950,3328.5,4201.9,7384.5,5452.4,12905.7,8857.6,8765
2952.1,3327.7,4177.2,7362.8,5463.1,12877.1,8861.8,8738.3
2957,3327.6,4154.5,7341.3,5474.3,12850.5,8868.7,8714.6
2963.6,3326.2,4148.5,7332,5477,12843.2,8872.6,8710.1
2980,3317.3,4159.7,7338.2,5458.6,12855.1,8865.6,8723.1
2985.9,3319.6,4181.8,7358.6,5443.2,12881.2,8858.4,8746.9
2979.8,3326.6,4205.3,7381.7,5433,12907.9,8852.8,8770.5
2978.9,3332.2,4213.6,7390.5,5421.8,12915.4,8845.2,8775.7
3000,3346,4197.1,7380.3,5400.6,12886.2,8833.7,8745.2
3007.6,3351.3,4172,7354.6,5404,12859,8837.4,8719.5
3010.2,3348.1,4142.5,7327.4,5423.1,12829.3,8848.9,8693
3012.2,3345.5,4128.4,7310.9,5436.8,12813.3,8860.6,8680.3
2996.6,3348.1,4140.1,7314.6,5439.2,12827.8,8870.6,8695.5
2968.1,3340.2,4159.6,7331,5466.3,12860.9,8885.1,8727.6
2954.5,3333.2,4192.5,7364.4,5470,12899.8,8885.3,8764.5
2950.1,3333.9,4215,7386.3,5455,12925.2,8875.7,8785.5
2947.9,3336,4216.2,7392.6,5446.5,12925.9,8868.2,8783.6
2946.7,3335.4,4202.3,7382.8,5447.2,12907.1,8864.7,8765.1
2948,3332.8,4178,7363.7,5454.4,12878.4,8865.5,8738.5
2955,3328.1,4155,7341.5,5464.1,12849.5,8871.6,8713.2
2964.9,3320.9,4151.2,7331.9,5464,12841.8,8878.6,8708.1
2968.7,3323.8,4164.3,7342.1,5458.8,12856.5,8879.7,8722.7
2969.5,3327.1,4186.2,7359.8,5450.1,12881,8876.8,8746
2966.1,3329.9,4212.7,7383.6,5437.4,12910.5,8868.7,8773
2961.2,3333.7,4226.5,7400,5430,12926.3,8859.2,8786.2
2957.7,3332.8,4214.2,7393.2,5432.4,12913,8855.5,8772.8
2957,3331.4,4195.9,7378.1,5439.6,12892.7,8855.8,8753.8
2961.1,3330.5,4167.9,7354.3,5456.7,12860.9,8863.2,8723.8
2967.5,3328.9,4147.6,7332.1,5484.3,12840.1,8877.1,8706.2
2969.2,3328.2,4155,7332.3,5491.6,12847.4,8883,8716.2
2969,3330.3,4173,7347.3,5484.3,12867.7,8882.5,8735.7
2967.6,3333.9,4199.3,7369.9,5471.3,12896.7,8877.8,8762.5
2963.3,3335.4,4220.8,7391.5,5457.6,12922.5,8869.8,8784.9
2958.4,3335.1,4220.6,7395.7,5452.9,12924.1,8864.9,8784.6
2957.1,3335.6,4206.2,7385.2,5455,12906.7,8863.8,8767.8
2960.4,3333.3,4181.5,7365.7,5459.8,12877.4,8864.8,8740.2
2979.8,3323,4152.7,7340.8,5458.5,12844,8864.2,8709.1
2992.8,3324,4146.3,7330.8,5459.5,12836.8,8867.6,8703.5
2994.3,3328.7,4157.7,7336.4,5459.1,12850.1,8871.2,8716
2998,3334.5,4178.1,7354.8,5448.2,12871.6,8868.8,8735
3017.7,3351.5,4194.6,7375.3,5413.8,12882.5,8854.6,8742.4
3019.6,3357.1,4200.6,7376.3,5402.4,12892.6,8850.1,8750.2
3015,3353.8,4190.2,7365.6,5410.4,12885.2,8852.7,8743
3010.4,3350.9,4171.2,7349.6,5422.6,12864.5,8859.1,8724.1
2993.6,3351.2,4152.2,7328.9,5437.1,12842.2,8870.7,8703.5
2968.2,3341.7,4138,7312.5,5483.3,12835.4,8894.2,8699.9
2959.4,3331.6,4148.5,7322.6,5502.3,12847.9,8903.9,8715.2
2962.4,3329.8,4168.1,7342,5493.4,12867.2,8900.2,8733.3
2964.3,3334.4,4195.5,7367.6,5477.2,12895.9,8892.8,8759.4
2961.5,3337.8,4217.2,7389.5,5461.2,12919.4,8882.9,8779.9
2957.2,3337.3,4219.5,7395.5,5453.1,12923.8,8875.1,8781.8
2956.9,3332.4,4205.9,7384.7,5452.9,12907.8,8872.3,8766.4
2963.4,3323.2,4184.6,7364.7,5455.8,12881.1,8875.6,8741.1
2969,3322.2,4159.7,7343.9,5466.8,12852.5,8881.2,8714.7
2974.9,3322.8,4150.2,7333.3,5474.4,12840.8,8887.1,8706.4
2977.8,3325.3,4162.8,7341.5,5472.2,12855.3,8887.8,8721.6
2977.7,3330.3,4185.7,7361.7,5465.4,12881.6,8883.1,8746.3
2973,3331.5,4210.9,7384.8,5451,12910.5,8874.5,8772.3
2966.9,3332.3,4226.6,7400.3,5437.7,12928.4,8865.1,8788.1
2961.8,3331.2,4217.6,7396.4,5438.1,12920.3,8860.4,8779.9
2960.1,3328.7,4196.5,7379.9,5458.4,12899.3,8865.8,8761.7
2959.4,3326.5,4171.8,7359.9,5473.6,12868.6,8870.9,8735.1
2961.8,3325.6,4154.5,7343.9,5481.1,12847.6,8875.9,8717.6
2964.2,3326,4159.4,7344.2,5479.5,12852.3,8877.7,8723.8
2964.8,3328.3,4175.1,7361.7,5471.8,12869.7,8874.9,8740.2
2962.9,3331.8,4202.6,7382.7,5458.6,12898.6,8869.2,8767.5
2956.9,3334.1,4226.1,7403.8,5442.6,12926.6,8859.9,8792.3
2952.3,3330.7,4225.4,7407.5,5432.9,12928.3,8851.6,8792.4
2963.3,3319.8,4209.1,7396.3,5420.8,12908.2,8841,8773.5
2970.9,3320,4184.9,7379.9,5423.1,12881.1,8838.8,8747.2
2972.5,3322.6,4160.4,7355,5437.1,12852.6,8846,8721.2
2980.9,3326.3,4151.8,7341.2,5440.5,12838.8,8850.7,8710.8
3006.6,3341.3,4155,7343.7,5415.7,12832,8843.3,8704.9
3013.4,3347.5,4168.2,7349.1,5403.6,12849.6,8843.1,8721.3
3008.6,3345.6,4191.6,7367,5396.3,12881.7,8841.9,8751
2997.6,3344.8,4207.7,7382,5387.9,12903.3,8838.1,8770.1
2974.6,3347.6,4207.4,7381.4,5388.3,12903.4,8839.2,8768.6
2943.2,3338.3,4191.9,7368.8,5428.2,12895.4,8855,8761.8
2931.8,3325.9,4171.1,7358.9,5456.1,12872.8,8864.9,8742.8
2938.4,3322.3,4154.6,7348.4,5463.9,12850.9,8868.7,8724
2947.3,3325,4157.7,7347.5,5463.5,12851.3,8871.2,8725.8
2950.8,3327.3,4172.6,7359.2,5456.1,12865.9,8869,8739.9
2950,3329.6,4199.3,7381.2,5442.6,12896.4,8862.6,8767.4
2947.1,3328.2,4220.4,7400.3,5427.3,12921,8854.3,8788.3
2946.6,3321.9,4225.3,7406.3,5415.2,12927,8848.6,8790.7
2944.8,3321.8,4211,7398.8,5417.4,12912.3,8845.5,8774.4
2945.9,3321.6,4187.8,7381.9,5427.7,12885,8846.3,8749.2
2950.4,3322.5,4163.5,7359.6,5442.5,12856.2,8852,8724
2955.4,3325.8,4153.2,7347.5,5453.6,12843.5,8856.6,8713.8
2958.3,3327,4163.8,7351.5,5452.6,12855,8857.6,8725.2
2957.4,3327.7,4183.5,7366.4,5443.5,12879.8,8854.4,8747.8
2954.4,3329.7,4207.4,7387.1,5434.7,12910.2,8849.7,8774.8
2949.4,3330.4,4218.3,7401.8,5440.7,12926.8,8848.3,8788.6
2942.6,3328.6,4214.1,7403.9,5444.5,12923.6,8845.9,8784.1
2941.3,3327.5,4199,7391.7,5448.8,12905,8845.5,8766.1
2943.4,3326.3,4174.3,7371.4,5458.2,12875,8848.3,8738.9
2947.6,3323.4,4155.9,7352,5467.9,12852.1,8853.5,8719.7
2951.8,3322.2,4157.6,7347.9,5470.6,12854,8857.5,8723
2952.6,3323.3,4171.5,7358.7,5464.7,12870.5,8857.4,8738.9
2951.9,3322.7,4193.4,7376.6,5449.6,12894.9,8850.7,8761.3
2961.3,3316.2,4211.7,7397,5422.8,12916.7,8834.7,8780.4
2964.5,3319.2,4216.2,7405.6,5411.2,12923,8824.6,8783.9
2960.1,3323,4202.7,7394.3,5416.5,12907.5,8824.1,8768.2
2963.5,3326.6,4182.3,7377.6,5420.8,12880.1,8824.1,8741.6
2991.1,3340.7,4149.6,7351.3,5412.2,12831.6,8822,8695
3004.5,3346.6,4130.2,7326.4,5420.2,12808.4,8831.7,8674.6
3007.6,3345.6,4138.9,7326.3,5426.9,12821,8840.5,8688.7
3003.7,3345.3,4157.3,7339.5,5424,12844.6,8843.8,8711.9
2981.3,3350.7,4188.9,7364.1,5414,12882.2,8845,8746.9
2945.7,3344,4206.4,7381.2,5438.6,12914.6,8854.6,8776.8
2929.5,3333.1,4209,7390.8,5452.9,12918.9,8856.3,8780.4
2930.4,3328.5,4197.7,7383.9,5453.7,12902.4,8853.4,8764.9
2935.1,3327.2,4174.5,7366.8,5459.1,12874.4,8854.1,8738.3
2941.7,3325.6,4153.7,7347.1,5468,12848.3,8858.7,8714.8
2948.3,3325.9,4153.8,7343.7,5470.7,12845.1,8862.5,8713.9
2953.5,3323.6,4166.1,7352.3,5464.5,12857.5,8863.3,8725.9
2958.2,3318.6,4189.7,7369.6,5448.6,12881.9,8861.6,8748.9
2955.2,3321.9,4213.8,7392.4,5433.9,12909.5,8854.2,8773.6
2951.1,3322.3,4220.4,7401.2,5426.8,12918.1,8847.9,8780.2
2949.4,3322.8,4209.8,7395,5431.2,12906.7,8845.4,8769
2949.8,3324.4,4189.9,7380.1,5442.3,12883.7,8845.7,8747.8
2953.5,3322.9,4164.6,7356.2,5456.2,12853.2,8851.3,8720.7
2959.4,3322.2,4149.3,7340.3,5467,12835.5,8858.9,8705.2
2964.1,3322.2,4158.3,7342.7,5469.7,12846.6,8863.8,8717
2965.6,3320.6,4172.5,7352.7,5478.5,12867.8,8869.6,8738.3
2960,3320.6,4200.9,7377,5470.5,12899.8,8865.7,8768.7
2952.7,3320.8,4219.6,7398,5456.4,12921,8856.6,8786.5
2947.8,3319.9,4217.4,7400.4,5450.4,12919,8850.3,8782.9
2945.9,3318.3,4203.7,7390.2,5452.6,12901.4,8847.4,8766.1
2948.1,3315.9,4181.3,7368.7,5462.3,12872.6,8849.9,8739.8
2953.1,3316.3,4159.4,7349.4,5473.3,12845.1,8855.9,8715.2
2959.2,3314.8,4153.7,7341,5475.2,12839.1,8859.9,8711.1
2973.9,3306,4163.2,7347.1,5456.6,12853,8853.2,8724.2
2978.5,3308.9,4183.5,7366.5,5441.2,12880.3,8846.6,8747.7
2972.9,3315.4,4208.8,7387.4,5431.7,12909.7,8841.9,8772.6
2974,3323.6,4216.9,7398.6,5422.3,12913.8,8834.6,8773.8
2997.3,3340.6,4199.1,7388.1,5403.1,12879.5,8824.3,8738.9
3006,3344.1,4172.8,7360.8,5408.7,12849.3,8828.4,8710.5
3008.8,3337,4145.3,7332,5428.1,12822.7,8840.4,8687.1
3009.6,3332.7,4130.6,7314,5441.2,12808.3,8852.9,8676.9
2993,3335.9,4143.4,7318.5,5442.3,12824.8,8862.5,8694.7
2963.5,3331.8,4163.8,7335.1,5469.2,12857.4,8876.9,8726.9
2950.4,3327.8,4194.6,7369.1,5475.4,12893.5,8878.6,8762
2949.1,3328.2,4216,7392.6,5461.7,12917.3,8870.1,8782.6
2948,3329.8,4216.1,7397.2,5453.7,12916.6,8863.2,8780
2948.2,3329.3,4199.7,7386.6,5455.9,12897.5,8861.2,8761.1
2950.7,3329.7,4174.2,7368.8,5464.5,12867.6,8863.8,8733.3
2957.4,3327,4152.2,7346.8,5473.9,12840.5,8870.2,8708.7
2968.7,3319,4148,7332.4,5475.2,12834.6,8878.4,8704.5
2973.6,3323.5,4160.4,7342.7,5472,12848.3,8880.1,8718.3
2973.8,3329,4181.4,7361.4,5464.1,12873.2,8877.3,8741.4
2970.9,3334.8,4206.3,7385,5452.6,12902.6,8870.2,8767.3
2966.9,3340.1,4216.7,7398.8,5447.3,12916,8862.4,8777.3
2966.2,3340.6,4205.5,7390.7,5451.7,12903,8861.3,8763.4
2966,3340.4,4185.6,7374.9,5459.6,12881.4,8863.9,8743.4
2969.5,3339.1,4158,7350.7,5475.3,12851.7,8871.3,8716.1
2975.8,3337.3,4138.4,7329.4,5501.4,12832,8885.9,8700.6
2977.7,3337.6,4144.3,7330.3,5508.5,12838.1,8893.6,8709.2
2977.9,3340.3,4165,7346.6,5500,12860.3,8892.8,8729.7
2975.4,3343.4,4193.5,7371.8,5484.9,12891.2,8886.5,8757.5
2969.9,3344,4214.4,7394.3,5470.2,12916.1,8877,8778.8
2965.1,3342.8,4215.1,7398.9,5465,12917.2,8870.8,8778.3
2963.6,3341.3,4200.8,7388.2,5467.9,12898.8,8869.2,8760.7
2965.7,3336.4,4174.5,7366.8,5474.2,12868.8,8870.8,8732.4
2983.2,3327,4147,7343.9,5473.5,12836.7,8869.9,8703.2
2995.3,3329.3,4140.9,7335.5,5474.2,12829.5,8872.7,8698.3
2996.3,3335.4,4152.7,7339.8,5472.6,12842.9,8876.1,8711.8
3000.4,3344.1,4174.2,7358.8,5460.6,12863.7,8872.9,8732.4
3020.4,3361.6,4192.5,7378,5426.3,12876.2,8858.3,8741.7
3023.6,3368,4197.4,7380.2,5415.4,12883.8,8854.3,8747.5
3020.1,3365.3,4185.2,7371.1,5423.5,12873.4,8856.9,8737.4
3016.2,3362.8,4166.6,7355.7,5434.5,12853.6,8863.4,8718.4
3000.4,3363.8,4146.4,7334.8,5448.4,12831.4,8875.8,8697.7
2975.7,3354.4,4133.8,7319.3,5492.5,12824,8898.8,8694.1
2967.8,3344.1,4145.3,7331.3,5509.7,12838.3,8909.1,8710.5
2970.9,3343.4,4165.4,7350.7,5499.9,12858.8,8906.9,8730
2971.9,3348.7,4194.3,7376.8,5481.9,12889.1,8899.3,8758.6
2969.3,3350.5,4215.8,7397.8,5465,12913.5,8889.8,8779.7
2965.8,3348.8,4218.4,7403.2,5456.7,12916.9,8882,8781.1
2964.9,3341.8,4205.8,7393.2,5454.6,12900.5,8878.8,8764.8
2970.2,3332.2,4183.2,7375.4,5455.7,12873.3,8881.6,8738.9
2975.4,3333.3,4157,7356.4,5467.2,12844.9,8887.4,8713.6
2981.8,3336.1,4149.6,7346,5475.2,12834.7,8893.4,8706.8
2985.1,3339.7,4164.3,7354.4,5472.5,12850.3,8894.5,8722.8
2984.3,3344.5,4186.5,7372.2,5465,12877.6,8889.3,8748.3
2979,3348.1,4211.2,7398.2,5451.4,12906.4,8880.6,8774.1
2973,3349.5,4225.1,7412.6,5440.5,12923.5,8872,8787
2968.3,3348.6,4218.4,7409.3,5441.7,12917.1,8867.9,8778.8
2966.4,3345.7,4198.9,7396.1,5461.3,12896.6,8872.4,8760.1
2965.1,3341.2,4175.7,7372.6,5476.7,12868.8,8877.1,8736.1
2967.5,3341.8,4161,7357.4,5483.7,12849.8,8881.5,8720.7
2969.9,3344.5,4168.4,7361.5,5481.4,12857.7,8882.8,8729.5
2970.8,3347,4184.2,7374.5,5474.1,12875.4,8879.9,8745.2
2969.4,3349.5,4207.3,7392.1,5462.8,12900.5,8874.1,8768.5
2964.8,3352.2,4229.7,7412.2,5449,12925.6,8865.4,8790.5
2960.9,3350,4227.5,7414.6,5441.4,12923.9,8857.4,8786.2
2972.1,3340.4,4208.4,7402.7,5431.3,12901.4,8847.6,8764.2
2980,3339.4,4183.4,7382.7,5434.7,12874.3,8846.4,8738.5
2981.2,3342.3,4157.5,7358.2,5448.7,12845.5,8853.7,8712.6
2991.1,3347.8,4148.4,7347,5454.4,12831.8,8859.9,8701
3019.1,3363.6,4152.3,7347.8,5431.9,12825.4,8854.1,8694.6
3027.7,3370.7,4165.8,7351.6,5422.2,12842.1,8854.8,8710.6
3022.5,3369.9,4186.9,7368.5,5417.6,12873.4,8854.8,8739.4
3012.7,3368.5,4199.9,7380.7,5412.8,12893.1,8853.4,8756
2989,3369.8,4198.8,7378.2,5414.3,12893.9,8856.3,8754.6
2957.4,3360.5,4183.2,7365.6,5456.1,12886.9,8873.7,8748.7
2947,3349.9,4162,7354,5486.8,12865.3,8885.9,8730.4
2955.1,3347,4145.3,7341.1,5497.3,12842.1,8891.6,8710.1
2963.3,3349.2,4149.6,7341.5,5496,12843.6,8894.7,8713.2
2966.5,3350.4,4167.1,7354.3,5487.5,12863.4,8893.1,8731.6
2965.2,3351.8,4190.6,7375.8,5474.5,12892.4,8887.5,8757.6
2962.7,3349.3,4212.2,7394.5,5458.3,12917.5,8879.9,8778.9
2963.7,3342.8,4216.8,7401.9,5445.5,12921.2,8875,8779.9
2962.4,3343.7,4202.4,7395.5,5446.2,12905,8872,8763.8
2964.7,3344.6,4178.4,7377.9,5455.1,12876.7,8874,8737.2
2969.7,3345.8,4154.8,7355.7,5467.7,12848.7,8879.8,8712.1
2974.9,3351.3,4146.8,7346.3,5476.5,12838.5,8884.3,8705.6
2978.8,3352.9,4156.6,7350.8,5474.9,12848.8,8886.6,8717.2
2978.2,3353.4,4176.8,7365.9,5465.2,12872.3,8884,8739.6
2974.5,3355.2,4203.1,7389.5,5453.6,12904,8878.6,8769.1
2968.5,3353.7,4214.7,7403,5456.8,12922,8876.8,8784.5
2961.4,3351.3,4210.4,7402.7,5459.7,12916.5,8873.7,8778.3
2958.9,3350.6,4195.9,7390.6,5462.9,12899.1,8872.7,8761.3
2960.4,3350.9,4171,7369.9,5472.6,12870,8876,8733.7
2965.7,3352.3,4153.1,7352.5,5481.7,12847.6,8880.9,8713.8
2970.4,3354.2,4154.5,7348.2,5483.9,12846.3,8884.5,8714.9
2972.1,3356.8,4171.4,7359.6,5477.3,12864.4,8884,8732.3
2972.8,3357.3,4194,7376.8,5463.4,12889.6,8878,8755
2982.7,3352.2,4212.9,7396.6,5436.6,12911.8,8863.1,8774.2
2984.9,3354.4,4215.3,7403.9,5425.6,12916.1,8853.9,8775.8
2980,3357.6,4202.8,7394.1,5431.4,12900.9,8854,8760.7
2984.6,3361.1,4180,7377.7,5437.5,12871.1,8856,8732.3
3013.4,3373.3,4148.6,7352.7,5428.1,12824.4,8854.1,8687
3026.7,3377.7,4131.3,7328.2,5434.6,12805.3,8862.6,8670.1
3029.5,3378.4,4137.7,7329.2,5441.4,12816.2,8871.5,8682
3027,3379.6,4158,7343.9,5438.1,12839.9,8875.4,8704.8
3004.1,3384.1,4191.4,7365.8,5426.7,12879.2,8875.5,8741.3
2967.5,3377.1,4210,7382.2,5450.4,12913.1,8883.8,8772.2
2950.4,3366.6,4211.6,7393.2,5465.9,12916.4,8884.9,8775.5
2951,3363.4,4197.2,7387.3,5468.7,12895.9,8881.9,8756.4
2955.9,3363.3,4174,7368.5,5475.5,12866.5,8882.9,8728.6
2962.7,3361.2,4154.8,7348.8,5484,12842.4,8887.4,8707.5
2967.8,3360.1,4155.1,7343.5,5485.5,12842.5,8890.3,8709.1
2971,3359.5,4168.3,7353.5,5478.2,12857.7,8890.1,8724.1
2974.1,3356.6,4191.9,7373,5461.9,12883.8,8887.5,8748
2972,3361.3,4215.3,7392.9,5449.5,12910.7,8880.7,8771.9
2968.4,3363.8,4221.1,7402.7,5443.4,12916.9,8874.2,8776.2
2965.6,3364.3,4209.4,7396.1,5445.8,12904.5,8870.9,8763.1
2964.7,3365.1,4189.4,7381.1,5455.2,12881.9,8870.4,8742
2968.4,3362.8,4165.1,7358.4,5467.2,12852.2,8874.5,8715.9
2974,3362.1,4152.8,7344.1,5475.6,12836.6,8880.6,8702.6
2978.5,3363.4,4160.4,7346.6,5478.8,12845.9,8885,8712.5
2979,3362.9,4175.7,7358.2,5487.4,12870.3,8890.6,8735.8
2973.3,3362.6,4202.5,7381.3,5479.7,12901.9,8887.2,8765.8
2966.8,3363,4222.3,7400.3,5465.8,12923.1,8878.4,8785.1
2960.9,3362,4218.6,7402.7,5460.3,12920.4,8871.9,8782.2
2958.5,3360.8,4204.8,7393.8,5461.9,12904.2,8869,8766.6
2960.6,3359.6,4181.8,7373.3,5469.9,12875.2,8871.1,8739.8
2964.9,3359.1,4160.9,7353.4,5478.7,12850,8876.1,8718.1
2969.6,3357.9,4157.6,7346.8,5478.1,12845,8878.1,8715.9
2983.8,3350.2,4167.1,7354.8,5458.3,12855.7,8869,8726.2
2989.8,3354.3,4189.3,7373.9,5442.5,12881.7,8861.2,8749.2
2982.8,3360.9,4212.7,7394.6,5432.3,12909.8,8855.6,8773.9
2981.4,3367.2,4220.7,7405.7,5422.2,12916.3,8847.9,8777
3002.2,3381,4202.7,7395.1,5402.3,12884.5,8836.1,8743.5
3010.5,3384.4,4176.3,7367.4,5408.3,12853.9,8839.7,8714.1
3014.4,3380.1,4150,7341.2,5429.1,12826.3,8851.2,8689.3
3015.8,3378.5,4135,7325.1,5444.5,12809.4,8863.6,8676.2
2999.9,3383.5,4149,7330.2,5447,12825.4,8873.3,8692.9
2971.8,3375.7,4168.4,7344,5476.2,12858.4,8888.4,8724.4
2958.2,3367.9,4200,7375.9,5482.6,12895.5,8889.8,8759.9
2955.9,3366.8,4221.3,7401.3,5468.8,12918.9,8880.4,8780.3
2953.5,3367,4220.3,7407.3,5460.4,12918.1,8872.4,8778.9
2952.3,3364.8,4203.8,7396,5462.1,12899.3,8869.4,8761
2954.9,3362.5,4179.7,7375,5470.7,12871.5,8871.6,8735.1
2961.2,3358.4,4157.7,7353,5479.4,12844.4,8877.2,8710.9
2971.3,3353.4,4155.7,7348.4,5478.3,12837.2,8883.5,8706.4
2975.5,3357.5,4168.6,7358.4,5473.7,12852.5,8884.7,8721
2976,3359.2,4190.1,7371.7,5464.9,12879.4,8881.8,8746.2
2972.2,3362.2,4214.1,7391.9,5453.1,12911,8874.5,8775.1
2967.1,3367.1,4223.3,7404.6,5448,12923.6,8866.5,8785.8
2964.6,3367.8,4212.4,7398.3,5450.6,12910.3,8863,8772.3
2964.5,3367.8,4191.6,7381.1,5458.7,12885.4,8864.3,8748.5
2968.2,3366.9,4164.9,7358,5474,12855.5,8871.2,8722
2973.8,3364.3,4147.6,7341.3,5497.7,12839,8884.3,8709.6
2975.1,3363.3,4156.6,7346.4,5501.6,12847.1,8889.3,8719.2
2973.6,3364.6,4175.1,7362.7,5491.6,12868,8887.3,8738.6
2969.9,3366.2,4202.5,7387.2,5475.2,12899.8,8880.6,8767.4
2963.6,3367.7,4223.4,7407.8,5459.3,12924.3,8870.6,8787.7
2958.2,3368.6,4223.7,7411.1,5453.2,12924.5,8863.9,8785.6
2956.1,3368.4,4209,7400.6,5455.8,12906.2,8861.8,8768.4
2959.2,3364,4184.6,7379,5462.1,12876.7,8862.6,8740.6
2978.7,3356.1,4156.9,7358.1,5461.4,12842.8,8860.9,8709.6
2991.8,3359.3,4149.3,7347.2,5463.6,12833.8,8864,8702.5
2992.2,3364.6,4163.4,7351.7,5462.3,12848.5,8866.5,8717.5
2996.6,3372,4185.4,7369.6,5450.8,12869.9,8862.9,8737.2
3017.1,3388.8,4201.9,7387.2,5419.1,12880.6,8848.7,8744.3
3019.2,3395,4205.8,7387.7,5410.7,12887.1,8844.7,8748.1
3016.5,3392.4,4195.3,7377.4,5421.2,12877.6,8848.4,8739
3013.6,3389.2,4176,7358.6,5434.9,12854.5,8855.6,8718.2
2996.9,3390.5,4156.8,7338.5,5450.3,12832,8867.2,8698.9
2970.2,3381.8,4143.1,7323.8,5495.8,12826.3,8889.8,8697.7
2961,3372.2,4154.5,7334.7,5515.1,12841.5,8900.4,8715.9
2963.3,3370.1,4174.1,7354.7,5506.7,12862.5,8897.6,8736.4
2964.1,3375,4199.6,7379.8,5492,12890.1,8890,8761.2
2962.1,3376.7,4218.1,7398,5479.4,12912.1,8882.2,8780.2
2958.3,3374.8,4219.3,7401.2,5473.5,12914.8,8875.6,8780.4
2958.2,3369.9,4205.3,7389.7,5473.5,12896.6,8873.1,8762.5
2964,3361.7,4182.9,7371,5476.3,12869.5,8876.7,8737.4
2969.4,3362.8,4159.4,7352.2,5487.7,12842.3,8882.8,8712.5
2975.5,3365.1,4153.1,7344.2,5495.5,12833.3,8888.3,8706
2978.5,3368.3,4164.8,7352,5494.4,12846.6,8889.3,8719.9
2978.1,3374.1,4186.5,7370.9,5488.4,12871.6,8885.1,8743.5
2974.6,3377.8,4211.8,7394.4,5476.7,12900.4,8878.1,8769.8
2969.4,3379.1,4224.1,7406.5,5467.4,12915.4,8870.8,8780.9
2966.7,3378.6,4214.8,7397.2,5471,12906.6,8868.8,8769.8
2966.1,3376,4195.7,7380.8,5491.7,12886.4,8875.4,8751
2966.2,3371.8,4172.9,7360.3,5507.3,12858.4,8881.7,8725.9
2970,3370.2,4158.3,7345.7,5513.8,12838,8886.7,8708.6
2973.1,3371.2,4164.7,7348.5,5511.7,12843.8,8888.8,8716.5
2973.7,3373,4183.1,7361.9,5502.9,12864.2,8886,8736.1
2970.6,3375.2,4209.2,7384.8,5488.1,12893,8879.3,8762.1
2965.8,3378,4231,7406.9,5473.5,12917.6,8870.9,8783.2
2962.9,3376.1,4229.7,7410.5,5465.4,12916,8863.2,8779.6
2974.9,3365.3,4211.8,7399.9,5454.2,12895.7,8853.8,8759.2
2984.2,3364.7,4188,7381.1,5457.5,12869,8853,8733.1
2986.8,3367.3,4163.2,7356.8,5472.5,12840.3,8861,8707.1
2995.7,3371.5,4156,7347.4,5477.5,12829.3,8866.4,8698.2
3021.9,3386.6,4157.9,7349.7,5454,12823.7,8860.2,8692.5
3029,3393.8,4170.5,7353.2,5444.3,12840.9,8860.9,8709.1
3025.5,3394.3,4195.6,7370.6,5438.5,12872,8860,8738
3016.5,3393.9,4208.9,7384.1,5432,12889,8857.4,8753.2
2992,3395,4205.7,7380.2,5433.3,12888.1,8860.2,8751.9
2957.6,3385.3,4191.4,7367.7,5472.4,12883.6,8876.2,8748.7
2945.4,3374,4170.3,7356.3,5501.9,12861.5,8887.1,8730.1
2952.5,3370.9,4156.6,7344.6,5510.5,12841.2,8891.2,8713.4
2959.7,3373.2,4162.1,7346.6,5508.3,12845.1,8892.7,8718.5
2962.8,3374.5,4178.2,7358.7,5500.2,12862.3,8889.8,8735.4
2960.8,3375,4204.6,7379.3,5485.3,12893.6,8882.3,8764.1
2956.8,3373.7,4224.6,7400.2,5469.7,12917.7,8873.4,8784.7
2956.7,3367.9,4226.2,7407.7,5459.1,12918.7,8868,8783.9
2955.9,3368.5,4213.8,7397.2,5461.4,12903.2,8865.4,8769.5
2958.2,3367.6,4191.7,7378,5471.8,12875.6,8867,8744.4
2963.5,3368.3,4167.7,7356,5485.9,12846.8,8872.3,8718.7
2968.2,3371.8,4158.8,7345.9,5496.3,12837.1,8877.1,8712.4
2971.2,3372.4,4169.6,7350.2,5495.2,12849.6,8878.4,8725.3
2970.9,3374.6,4191,7366.5,5486,12874.1,8875.3,8747
2967.7,3377.4,4215.8,7389.5,5476.4,12904.1,8869.9,8773.4
2963.1,3377.4,4226.4,7403.1,5482.5,12920.4,8869,8786.3
2956.9,3375.7,4220.8,7402.2,5487.3,12914,8867.2,8779.2
2955,3374.2,4204.7,7389.7,5491.3,12894.2,8866.8,8760.4
2956.5,3374.4,4180.2,7372.4,5499.5,12864.3,8869.7,8732.2
2960.7,3375.4,4162.7,7354.5,5508.1,12842.4,8874.2,8713.7
2964.8,3377.1,4164.4,7349.7,5509.5,12843.5,8878,8717.5
2965.8,3378.3,4180.9,7360.5,5502.1,12862.1,8876.8,8736.1
2965.1,3377.4,4203.9,7378,5487.5,12888.4,8870,8760.5
2975.4,3371.3,4222.2,7397.8,5462.3,12909.8,8855.1,8778.5
2979.9,3373.5,4223.9,7404,5451.7,12912.2,8845.4,8778.1
2975,3376.8,4210.7,7392.6,5456.7,12897.1,8845.5,8763.2
2979.6,3380.1,4189.3,7375.2,5462.3,12868.7,8847.6,8735.8
3007,3391.1,4158.6,7348.1,5452.7,12822.5,8845.8,8691.5
3019.6,3395.1,4143.5,7324.2,5458.8,12805,8854.6,8676.6
3022.3,3393.8,4150.8,7324.2,5465.6,12817.1,8862.9,8690.5
3018.4,3394.5,4169.5,7338.7,5463,12841.6,8867,8715.4
2994.8,3398.6,4199.4,7362.3,5452.8,12879.5,8867.9,8750.5
2957.2,3389.9,4216.2,7379.2,5476.6,12912.7,8876.7,8781
2940.3,3378.8,4217.6,7388,5491.5,12915.2,8878,8783.8
2942.7,3377.6,4205.2,7383.5,5493.8,12894.1,8874.7,8764.7
2951.2,3380.8,4182.3,7366.2,5501.2,12860.6,8877.1,8733.6
2959.5,3381.9,4164.3,7347.1,5509.4,12835.8,8882.5,8711.4
2965.8,3380.7,4165.7,7342.7,5509.6,12836.6,8886.2,8714
2969.5,3375,4179.4,7350.5,5500.9,12855.6,8886.1,8731.6
2972.7,3369.3,4203.3,7368.2,5483.3,12884.6,8882.9,8756.9
2969.4,3373.3,4226.9,7392,5468.4,12911.4,8874.6,8780.6
2964.5,3374.6,4231.9,7401.3,5459.8,12916.2,8866.6,8784
2961,3374.9,4221,7395.1,5460.7,12903.1,8861.8,8770.9
2960.1,3377.1,4200.7,7381.2,5469.9,12880.4,8860.8,8750.1
2963.3,3376.1,4175.6,7359.5,5482.3,12850.9,8865.5,8724.6
2968,3377,4163.7,7347.2,5491,12836.3,8871.7,8713.3
2971.9,3378.3,4171.4,7350.3,5493,12847.3,8876.3,8725.7
2971.2,3376.4,4186.3,7361.1,5498.3,12870.7,8880.3,8748.9
2963.9,3375.2,4214.6,7385.3,5488.3,12904.7,8875.1,8780.2
2956.1,3375.5,4233.4,7403.8,5474.3,12925.9,8865.4,8798.2
2951.4,3375.1,4230.7,7405.4,5469.4,12920.4,8858.9,8790.5
2949.9,3373.2,4216.5,7395.4,5471.5,12901.4,8854.9,8772
2951.3,3370.7,4192.2,7374.8,5480.5,12873.1,8857.1,8745.8
2954.8,3369.7,4171.4,7356,5490.5,12849.4,8862.8,8725.1
2960.8,3367.5,4166.7,7349.3,5492.8,12843.1,8865.8,8720.8
2978.4,3360.9,4175.6,7357,5476.8,12853.2,8859.3,8730.2
2986.9,3364.3,4197.1,7374.8,5463.2,12878.4,8853.8,8753.6
2981.7,3370.7,4220.5,7392.9,5454.2,12904.4,8849.5,8777.8
2980.8,3375.3,4226,7400,5445.3,12908.3,8843.2,8780.2
3001.7,3387.1,4205.5,7386.5,5427.2,12876.3,8833.4,8746.9
3009.2,3389.8,4179.3,7359.7,5433.9,12847.1,8837.1,8718.7
3012.1,3385.4,4151,7334.7,5454,12818,8848.9,8693
3014.4,3383.5,4135.9,7319.5,5468.5,12801.6,8861.8,8680
2999.1,3387.3,4151.1,7321,5470.8,12818.8,8872.4,8697.4
2969.4,3380.6,4173.4,7335,5498.6,12855.1,8888.6,8733.1
2954.1,3372.4,4207.2,7368.9,5503.7,12896.7,8890.2,8772.8
2951.4,3371.5,4229.3,7395.7,5489.1,12919.8,8880.3,8792.1
2950.2,3372.7,4227.3,7400.8,5481,12916.7,8872.8,8786.2
2950.2,3369.6,4213.4,7388.5,5481.3,12898.6,8869.6,8767.7
2952.6,3367,4191.6,7373.1,5486.9,12871.9,8869.5,8742.1
2958.5,3362.4,4170.9,7355.2,5493.3,12846.6,8873.5,8719.3
2967.5,3355,4169.7,7345.5,5490,12843.9,8879,8717.8
2970.1,3358,4181.9,7355.5,5483.2,12858.7,8878.9,8732.3
2969.7,3361.9,4204,7373.9,5472.7,12883.8,8874.6,8755.9
2964.9,3365.5,4230.1,7397,5458.8,12914.6,8866.1,8784.1
2959.5,3369.7,4240.1,7410.2,5452.2,12927.4,8857,8794.3
2956.6,3370.8,4227.1,7402.7,5455.7,12912.3,8854,8778.8
2956.8,3371.1,4206.9,7386.7,5463.5,12888.4,8854.9,8756.2
2960.9,3370.6,4180.2,7363.1,5479.2,12859.3,8861.8,8729.1
2966.9,3368.9,4163.1,7345.6,5504.4,12842.6,8875.5,8715.3
2968.4,3368.5,4170.3,7348.7,5510.8,12849.9,8881.5,8724.2
2967.7,3370.4,4190.1,7363.5,5502.1,12870.7,8879.9,8743.9
2963.8,3372.7,4217.5,7387.1,5487.1,12902.4,8872.8,8771.4
2958,3374.3,4236.6,7407.2,5474.4,12924.4,8862.7,8789.3
2952.9,3375.5,4236.2,7411.5,5469.4,12922.9,8856.2,8787.1
2950.8,3375.4,4222.9,7401.2,5471.1,12907.9,8854.3,8772.9
2953.6,3371.1,4195.9,7379,5478.8,12877.1,8855.3,8743.7
2972.3,3360.3,4167.8,7356.2,5478.3,12844.6,8854.1,8714.1
2985.9,3361.6,4163.8,7348,5478,12839,8855.6,8710.4
2985.8,3367.2,4176.2,7354.5,5476.9,12852.6,8857.6,8724.2
2988.6,3373.6,4198.1,7373,5465.9,12874.5,8854.2,8744.5
3008.6,3390.1,4215.2,7390.8,5433.4,12885.5,8839.9,8750.7
3011.5,3395.6,4217.6,7389.6,5425,12889.9,8835.8,8752.8
3008.8,3391.8,4206.9,7378.3,5434.8,12879.8,8838.7,8742.6
3005.6,3388.5,4187.6,7362,5447.6,12858.1,8845.5,8722.2
2989.4,3388.5,4168.5,7341.2,5462.9,12836.1,8857.2,8702.3
2963.3,3378.1,4156,7324.7,5508.2,12831.4,8880.2,8701
2954.2,3368.8,4168,7335.6,5527.1,12847.3,8890.8,8719.2
2957.6,3368.8,4187.3,7356.3,5519.4,12867.9,8888.3,8738.3
2958.5,3372.9,4213.1,7379.7,5504.8,12895.8,8881.8,8763.5
2956.2,3374.6,4233.3,7397.6,5491.3,12918.6,8873.1,8782.9
2953.2,3372.9,4232.1,7401.2,5486.5,12918.3,8866.7,8780.6
2953.9,3366.9,4217.2,7390.2,5487.9,12900,8865.4,8762.5
2960.3,3356.4,4195,7370.7,5491.1,12874,8869.3,8738
2966.3,3355.5,4170.7,7349.9,5502.2,12846.8,8875.7,8713.3
2972.6,3356.1,4164.9,7341.4,5509.6,12838.5,8881.2,8707.8
2976.3,3358,4178.6,7351.1,5507.9,12854,8881.8,8722.9
2976.3,3362.3,4202.7,7369.7,5500.6,12881.9,8877.7,8748.8
2971.2,3363.3,4227.5,7391.2,5487,12911.8,8869.8,8775.6
2964.4,3363.8,4237.5,7404.5,5476.1,12925.1,8861.4,8786.2
2960.5,3363,4228.2,7400.1,5478.1,12914.3,8858.4,8774.5
2959.5,3359.7,4207,7383.6,5498.3,12893.4,8864.3,8755
2958.4,3356.6,4184,7364.6,5513.2,12866.1,8869.5,8731.2
2961.6,3355.5,4169.1,7350.1,5521.2,12847.1,8874.7,8715.6
2965.3,3356.5,4175,7351.1,5520.5,12851.8,8877,8722
2965.2,3357.6,4193.6,7365.1,5511.6,12872.2,8873.2,8741.3
2962.3,3360.2,4219.6,7386.5,5498.8,12901.4,8867.1,8768.2
2956.3,3361.4,4240.5,7406.6,5484.4,12926.6,8858.2,8790.5
2953.2,3359.3,4237.8,7409.8,5476.9,12925.5,8850.4,8787
2964.8,3349.3,4218.6,7396.4,5467,12903.9,8840.5,8765.8
2974.6,3348.5,4194.7,7373.9,5471,12877.5,8839.5,8740.4
2977.4,3351.4,4169.3,7349.6,5486.7,12847.3,8847.7,8713.1
2986.1,3356.7,4162.9,7341.4,5491.2,12836,8852.9,8705
3012.3,3372,4167,7344.1,5467.6,12831.9,8846.2,8700.4
3018.6,3378.4,4180.6,7349.6,5456.3,12850,8845.8,8717.1
3013.7,3377.6,4203.3,7366.6,5450.3,12881.7,8844.7,8745.8
3004.4,3376,4216.8,7379.2,5444.7,12900,8842.3,8761.4
2982,3377.7,4214.2,7377,5446.7,12897.8,8845.8,8758.7
2949.8,3369,4198.2,7362.7,5487,12889.6,8862.5,8752.5
2937.8,3357.7,4179.1,7352.1,5515,12869.8,8872.6,8736
2945,3355.1,4165.2,7342.8,5522.8,12849.1,8876.6,8718.4
2952.4,3359,4170,7345.9,5521.1,12852.1,8878.7,8721.8
2956.2,3361.9,4185.7,7358.7,5513.6,12868.8,8877,8737.4
2956.2,3363,4210.1,7378.7,5500.9,12896.4,8871.2,8762.7
2954.2,3361.5,4229.5,7398,5486.9,12919,8863.9,8781.6
2955.1,3355.3,4231.6,7401.1,5476.4,12920.4,8859.9,8780.3
2954.6,3356.3,4217.8,7391.7,5478.7,12904.7,8858.8,8764.6
2957.1,3356.3,4195,7371.7,5488.7,12877.5,8861.9,8739.6
2961.6,3356.7,4172.2,7352.8,5500.7,12851.6,8867.5,8717
2966.8,3361.8,4164.1,7344.5,5510.3,12842.7,8872.1,8711
2970.4,3365.2,4174.4,7349.9,5508.9,12853.5,8873.9,8722.5
2971.3,3367.4,4195.4,7365.7,5499.9,12876.8,8871.8,8744.7
2968.2,3369.9,4220,7386.5,5489.6,12905.9,8866.9,8771.9
2963.4,3369.7,4229.8,7397.4,5494.8,12922.6,8866.8,8786.7
2957.1,3366.9,4223.5,7394.3,5499.3,12914.9,8864.9,8779.5
2954.7,3366.6,4207.7,7383.2,5504.1,12894.4,8864.4,8760.4
2956.2,3366.3,4184.5,7364.9,5512.7,12866.3,8867,8734.6
2961.3,3365.9,4169.6,7348.7,5521.2,12846.1,8871.6,8717.5
2966,3367.5,4171.6,7347.2,5522.7,12846.6,8875.6,8720.4
2967.6,3369.6,4186.8,7358.4,5516.2,12863.6,8875.5,8737
2968.1,3370.5,4208.3,7376.1,5501.7,12888.3,8869.8,8758.8
2979.1,3364.1,4224.6,7394.2,5476.9,12908.1,8855.9,8775.7
2983,3365.3,4225.2,7399.7,5466.8,12912.3,8847.5,8776.6
2979.1,3368.9,4212.2,7389.3,5471.9,12897.3,8847.9,8761.9
2983.2,3371.9,4190.7,7372.3,5477.1,12869.5,8849.3,8736.1
3011.8,3384.5,4159.1,7346.8,5468,12822.4,8847.2,8690.5
3025.4,3390,4143.8,7323.3,5474.5,12804,8856.8,8675.5
3027.8,3387.8,4151.8,7322.3,5480.5,12818.2,8866.2,8690.9
3023.8,3386.3,4172.9,7336.8,5475.9,12844.4,8869.7,8715.9
3001.1,3391.3,4204.2,7361.7,5465,12881.2,8870.4,8748.9
2964.6,3384.4,4220.7,7379.3,5489.8,12912,8879.9,8777
2947.6,3372.4,4220.2,7388.1,5505.3,12913.1,8882,8778.9
2948.8,3367.9,4207.8,7384.3,5506.6,12895.2,8879.5,8762.1
2954.7,3367.5,4186.4,7365.8,5512.2,12868.8,8881.4,8736.7
2961.9,3366.1,4167.8,7344.3,5520.5,12845.6,8886.2,8716.4
2967.4,3365.8,4170.1,7342.3,5521.1,12847.1,8888.8,8719.1
2971,3362.9,4185.4,7352.5,5512,12863.2,8887.4,8735
2975,3356.5,4209.5,7369.6,5494.6,12888.9,8884,8758.8
2972,3358.2,4231.1,7390.2,5481.5,12916.3,8877,8782.8
2967.3,3359,4234.7,7397.7,5475.2,12923.2,8870.7,8787.5
2965.5,3361.1,4221.8,7390.3,5479,12909.2,8868.4,8773.6
2966.8,3364.5,4200.6,7373.8,5490.4,12884.8,8869.8,8751.2
2971.5,3363.3,4176.5,7351.2,5503,12855.4,8875.7,8725.8
2977.1,3364.2,4166.4,7339.5,5511.1,12841.1,8882.7,8715.5
2981.3,3365.8,4174.6,7344.8,5513.3,12850.5,8886.8,8725.5
2981.4,3365,4189.9,7356,5520.9,12872.4,8891.7,8747
2976.3,3366.3,4217.8,7378.6,5513.1,12903.8,8887.9,8777.3
2970,3368.3,4236.1,7396.1,5499.9,12924.2,8879.5,8794.7
2964.9,3369.1,4231.5,7397.3,5495.1,12919.6,8873.1,8788
2963,3368.9,4216.8,7387.2,5498.3,12901.6,8870.8,8770.6
2964.5,3368.7,4192.6,7367.8,5507,12873.5,8874,8744.5
2968.3,3370,4173.3,7350.2,5515.4,12851.6,8879.9,8725.1
2974,3368.9,4171.1,7343.3,5515.1,12847.8,8882,8723.3
2989.3,3363,4180.4,7352.1,5496.8,12857.7,8874,8733.9
2995,3368.8,4202.4,7372.5,5480.1,12882.9,8866.4,8757.3
2988.4,3374.1,4223.2,7389.5,5469.3,12908.7,8861.8,8780.1
2987.7,3377.7,4228.5,7396.5,5459.5,12913.9,8855.5,8782.9
3008.9,3390.2,4210.2,7384.6,5438.5,12884.6,8844.4,8752.2
3016.5,3393.6,4183.9,7357.7,5443.4,12855.5,8847.5,8725.5
3019,3389.7,4156.2,7332.2,5463,12827.5,8858.8,8700.9
3019.8,3387.9,4145.8,7319.5,5475.3,12815.6,8870.2,8692.4
3003.7,3391.2,4160.8,7326.3,5476.4,12832.8,8879.1,8710.4
2973.1,3384.4,4180.2,7340.7,5504.8,12866.1,8894.1,8743.6
2958,3376.8,4212.5,7372.7,5510.4,12904,8894.7,8780.9
2955.8,3376,4231.3,7395.2,5497.7,12923.2,8885.4,8797.3
2955.3,3378.1,4228.6,7397.8,5491.5,12919,8878.8,8791.1
2955.3,3377.8,4213.2,7386,5493.6,12900.9,8876.9,8773.9
2958.4,3375.9,4189.5,7366.4,5501.2,12872.5,8879.5,8747.3
2965.3,3371.8,4169.1,7345.1,5508.8,12847.5,8886.5,8725
2975.9,3366.8,4168.9,7336.5,5506.2,12844.4,8893.2,8723.8
2979.4,3368.9,4181.9,7345.5,5499.9,12860.4,8893.6,8738.9
2978.8,3371.4,4203.8,7364.1,5489.6,12885.8,8889.8,8762.4
2974.7,3376.4,4228.3,7387.6,5477,12914.6,8882.3,8788.5
2969.6,3381.9,4235.8,7398.7,5471.1,12924.9,8874.9,8795.8
2966.5,3384,4224.6,7392.2,5472.7,12911.7,8871.9,8782.3
2967.3,3383.9,4205.5,7376.7,5479.4,12887.9,8872.9,8759.9
2971.4,3382.7,4180.5,7353.7,5494,12859.7,8879.6,8734
2975.6,3379.6,4162.8,7336,5518.5,12844.4,8892.1,8721.5
2975.1,3376.7,4173.3,7340.8,5522,12856.9,8896.1,8735
2973.3,3377,4192.3,7355.5,5513.5,12878,8893.9,8755.2
2969,3379.3,4219.1,7380,5498.3,12907.6,8886.6,8782.7
2964.1,3382,4239.1,7401.5,5483.8,12927.8,8876.1,8800.1
2960.6,3384.8,4238,7405.2,5479.4,12924.5,8870.3,8795.5
2959.1,3386.8,4223.9,7395.8,5482.4,12906.5,8868.8,8777.8
2961.5,3382,4196.8,7373.8,5488.1,12875.1,8869.2,8748.3
2979.8,3371.1,4171.5,7350.6,5484.6,12844.4,8867,8721.3
2990.7,3372.2,4168.8,7344.3,5482.6,12841.8,8867.8,8720.7
2989.5,3376.7,4181.3,7352,5480.2,12857.4,8869.7,8736.6
2992,3381.5,4203,7370,5467.7,12880.1,8865.2,8757.4
3012.4,3396.2,4218.1,7385.8,5434.8,12889.5,8850.3,8762.4
3015,3400.7,4219.9,7386.6,5425.8,12894.6,8846.1,8765.1
3011.2,3395.2,4207.8,7378.2,5434.9,12885.5,8849.6,8755.8
3006.5,3389.5,4190.9,7359.8,5445.7,12866.6,8855,8739.3
2989,3389.9,4174,7341,5457.4,12846.3,8865.1,8721.1
2962.8,3380.3,4162.1,7327,5499.7,12841,8886.3,8718.9
2954,3370.3,4174.9,7340.2,5515.9,12856.6,8894,8737.1
2955.3,3367.5,4195.3,7361.8,5505.9,12877.9,8888.8,8757.3
2955.5,3369.3,4222.9,7386.5,5488.8,12907.2,8879.5,8783.3
2951.8,3369.5,4242.7,7404.8,5472.9,12929.7,8868.9,8802.2
2947.6,3367.4,4242.4,7408.7,5466.3,12930.4,8861.1,8800.5
2946.6,3362.3,4226.2,7396.4,5466.7,12911,8857.9,8781.5
2951.5,3353.6,4204.9,7377.9,5467.5,12883.5,8859.5,8756.2
2955.4,3352.6,4183.6,7360.2,5475.1,12859.7,8862.7,8734.1
2958.5,3353,4178.1,7353.2,5479,12853.1,8864.1,8729.3
2960,3355.2,4191,7362.5,5475.7,12868.1,8862.3,8744.8
2958.6,3359.9,4214.1,7382.3,5467.7,12894.4,8856.3,8768.3
2954.4,3362.2,4238.2,7403.9,5455.6,12922.1,8849,8793
2948.9,3362.2,4248.2,7415.7,5446.8,12934.3,8840.7,8803
2945.4,3360.4,4238.4,7410.4,5449.8,12924.6,8837.9,8792.8
2945,3356.3,4215.9,7391.7,5471.5,12902.4,8844.8,8773.2
2945,3353.5,4192.5,7371.2,5488.3,12873.8,8850.9,8748.5
2947.8,3352.2,4178.2,7355.8,5496.2,12855.1,8855.4,8732.7
2949.9,3353.1,4184,7357.3,5495.4,12862.7,8857.8,8740.7
2950.5,3353.6,4202.8,7371.3,5487.1,12883.2,8854.7,8760
2947.8,3353.9,4228.6,7392.2,5474.4,12913.8,8848.4,8787.6
2943.3,3353.8,4246.4,7410,5463.3,12936,8841,8806.3
2940.2,3349.4,4243.3,7412.1,5457.7,12933.6,8833.9,8802.6
2953.1,3338.1,4225.5,7400.9,5448.6,12911.3,8824.5,8780.5
2961.8,3337.3,4200.4,7381,5455,12883.8,8824.5,8753.8
2962.9,3340.2,4175.6,7358,5471.2,12856.6,8833,8729.3
2971.4,3344.8,4169.2,7349.1,5475.4,12845.9,8837.7,8720.7
2998.4,3359.2,4173,7349.6,5452.7,12840.8,8831.7,8714.7
3006.1,3364.8,4187.9,7353.9,5442.1,12858.6,8832.3,8732
3001.3,3363.5,4210.6,7371.7,5436.1,12887.7,8831.6,8759.7
2991.7,3362.2,4223.3,7385.8,5429.2,12903,8828.1,8773.5
2969.1,3364.6,4220.3,7385.2,5429.8,12899.7,8830.3,8769
2938.5,3354.5,4205.3,7371.9,5469.5,12892.2,8846.7,8763.4
2929.4,3342.2,4186,7360.2,5498.3,12870.7,8857.4,8746.4
2936.6,3338.7,4172.6,7349.5,5506.7,12851.4,8861.6,8730.7
2943.4,3342.1,4179,7353.1,5504.2,12854.8,8862.7,8735.5
2946.5,3343.8,4195.5,7365.3,5495.3,12871.6,8859.9,8751.7
2945.8,3344.3,4220.9,7386.4,5481.1,12901.4,8853.4,8778.8
2942.6,3341.5,4240.1,7405.9,5465.3,12924,8845,8797.5
2943,3333.5,4239.9,7408.2,5455.2,12923.4,8841.2,8794.3
2942.4,3332.8,4226.1,7398,5457.9,12906.8,8839.4,8778
2944.7,3331.5,4204,7379.2,5468.7,12881.1,8841.9,8754.8
2950,3334.3,4180.4,7362.6,5483,12853.1,8848,8729.8
2955.9,3338.8,4172.1,7350,5494.1,12843.4,8853.7,8723
2960.3,3340.2,4184.5,7352.4,5494.5,12857.3,8856.4,8737.5
2960.9,3341.3,4204.6,7369.4,5488.1,12880.2,8854.2,8759.5
2958.3,3343.5,4226.5,7387.8,5481.1,12907.5,8850.4,8784.6
2954.3,3343,4236,7398.6,5488.7,12923.5,8851,8797.2
2948.3,3340.1,4228.8,7397.4,5494.6,12915.4,8849.9,8787.8
2945.6,3338.7,4211.7,7385.6,5498.9,12896.2,8849.6,8769.3
2948.3,3337,4187,7364.9,5509,12867.6,8854.2,8743
2954,3337.2,4171.5,7349.5,5518.1,12847.9,8860.1,8726
2959.3,3338.9,4174,7348.7,5520.9,12850.1,8865.3,8729.1
2961.2,3341.4,4189.5,7359.5,5515.4,12868.6,8866,8746.6
2961.8,3342.4,4210.6,7377,5502.7,12892.6,8861,8768.4
2971,3336.4,4226.9,7396.2,5477.9,12912.6,8846.6,8785.5
2973.6,3337.2,4227.9,7400.8,5467.8,12915.7,8837.9,8785.3
2969.4,3340.3,4213.3,7387.3,5473.6,12899.3,8838.9,8769.4
2973.9,3344.2,4190.5,7369.6,5479.8,12871.4,8841.6,8743.8
3001.8,3357.1,4160.6,7344.5,5469.1,12825.9,8839.3,8700.5
3015.4,3363.8,4145.6,7322.7,5474.8,12808.6,8847.9,8685.6
3019.5,3365,4154.1,7324.4,5482.2,12821.3,8857.2,8699
3016.7,3366.2,4173.2,7336.4,5479.8,12843.4,8861.3,8720.9
2995.3,3371.1,4205,7360.2,5469.7,12880.3,8863,8755.1
2961.7,3363.2,4220.4,7376.3,5495.2,12908.7,8873.6,8780.8
2946.3,3351.5,4220.6,7385.3,5510,12910.6,8875.7,8782.5
2947.5,3347.5,4206.4,7378.8,5511.3,12892.3,8873.2,8764.5
2952.3,3348.4,4185,7362.3,5516.1,12864.1,8873.6,8738.4
2958.3,3348.9,4169.9,7347.9,5521,12843.2,8876.5,8721
2964,3350.3,4171.2,7346.8,5520.5,12843.7,8878.8,8723
2968.3,3350.2,4184.6,7357.1,5512.3,12858.7,8878.5,8737.7
2973,3346.2,4208.1,7375.4,5496.2,12883.4,8876.5,8761.5
2970.7,3348.7,4228.8,7395.5,5483.3,12908.1,8869.9,8782.9
2967,3349.7,4232.9,7402.3,5477.3,12913.6,8863.8,8785.4
2965.6,3350.7,4221.8,7395.7,5479.7,12900.9,8861.2,8771.8
2965.9,3352.2,4201.3,7379.9,5489.7,12878.5,8862.1,8751.3
2969.3,3350.4,4177.5,7357.5,5502.9,12852.2,8867.8,8727.9
2974.8,3349,4167.4,7344.8,5511.3,12839.9,8874.3,8718.3
2979.6,3350.1,4176.5,7348.5,5514,12850.2,8879,8729.7
2980.3,3349.9,4190.8,7360.2,5522.5,12872.2,8884.9,8751.3
2973.8,3349.7,4217.3,7382.8,5514.5,12904.8,8881.5,8782.1
2967.5,3351.2,4234.3,7400.5,5501.7,12923.9,8873.3,8798.6
2963.4,3350.8,4230.8,7400.5,5496.3,12918.7,8867.7,8791.9
2961.4,3348,4219.2,7391.4,5496.1,12903,8864.5,8776.3
2963.9,3345.5,4194.4,7372.2,5505.9,12874,8867.8,8749.9
2968.8,3344.9,4176.3,7355.1,5515.7,12850.8,8874.1,8730.4
2974.4,3340.9,4173.8,7349.2,5515.4,12848.3,8877.1,8729.9
2989.2,3332.5,4183.2,7357.6,5497,12860.9,8869.4,8741.8
2995.3,3335.6,4205.5,7376.1,5481.8,12888.2,8862.7,8766.3
2989.3,3339.9,4226.4,7393.2,5472.5,12914,8857.7,8789.4
2988.6,3343.4,4232,7401.7,5462.8,12919,8850.6,8792.3
3010.3,3356.7,4213.4,7391.3,5443.5,12887.1,8840.3,8758.8
3018.2,3360.3,4185.6,7364.8,5450.2,12855.7,8844.7,8729
3020.8,3355.7,4159.4,7338.5,5469.7,12830,8856,8707.2
3022.1,3352.3,4148.4,7322.8,5481.3,12818.2,8866.9,8698.6
3006,3355.3,4165,7330.8,5480.8,12835.5,8875.3,8716.4
2975.6,3349.1,4185.1,7347.4,5507.6,12869.1,8889.4,8749.3
2961.4,3342.1,4216,7378.7,5513.6,12904.1,8890.1,8783.8
2959.4,3341.6,4234.8,7402.2,5500.8,12924.5,8880.9,8801.2
2958.2,3344.1,4232,7405.3,5494,12921.4,8874.1,8795.9
2958.5,3343.8,4216.7,7394.3,5495.7,12903.7,8871.9,8779.1
2961.5,3341.3,4192.5,7374.4,5503.6,12875,8873.6,8752.8
2968.5,3337.3,4172.7,7352.5,5510.7,12849.6,8879.2,8730.5
2977.5,3330.7,4173,7345.2,5506.5,12846.9,8884.4,8729.7
2979.4,3333.5,4186.9,7355.1,5499.5,12864.5,8883.4,8746.1
2978.5,3339.5,4208.7,7375.5,5489.9,12889,8878.9,8768.7
2975.5,3342.9,4232.6,7397.8,5477.5,12916.2,8871.1,8793.2
2969.4,3346.3,4241.1,7409.9,5470.6,12927.3,8862,8801.6
2966,3344.9,4230.5,7402,5471.7,12914.2,8858.5,8788.3
2965.8,3343.6,4211.7,7385.4,5477.6,12890.6,8858.9,8766.1
2969.3,3342.6,4187.3,7362.6,5491.6,12862.4,8864.8,8740.7
2974,3341.1,4171,7345.5,5514.8,12846.2,8876.3,8728.1
2973.5,3341.4,4180.1,7351.1,5518.7,12856.5,8880.3,8739.6
2972.2,3344.5,4199.9,7367.1,5510.4,12879.2,8877.7,8760.2
2968.8,3346.9,4225.5,7388.6,5496.9,12908.3,8871,8786.9
2962.7,3346.7,4244.6,7406.8,5483.3,12931,8861.2,8806.1
2957.7,3345.4,4242.8,7408.3,5478.4,12929.5,8854.7,8801.9
2955.4,3344.4,4228.4,7398.2,5481.9,12912,8852.2,8784.8
2957.6,3341.2,4200,7375.6,5490,12879.4,8852.9,8754.1
2974.9,3333.4,4174.9,7355.5,5487.9,12848.5,8850.4,8726.6
2987,3335.4,4171.2,7349.8,5488,12843.4,8851.6,8722.9
2987.7,3339.7,4183.5,7353.2,5488.4,12858.5,8854.5,8736.9
2990.1,3346.6,4205,7370.4,5476.6,12882.3,8850.9,8759.1
3009.4,3363,4220.7,7388,5442.6,12890.9,8835.6,8765
3012.2,3369.7,4222.2,7387.3,5433.8,12893.4,8831.4,8766.2
3009.4,3366.8,4209.7,7377,5443.6,12882.1,8834.9,8755.6
3006.2,3363.6,4190.2,7359.8,5456.3,12858.7,8841,8734.8
2990.7,3365.2,4172,7340.4,5470.8,12837.1,8853.3,8716.1
2965.3,3356.2,4160.2,7326.4,5514.4,12834.7,8876.3,8717
2956.9,3347.4,4173.3,7339.8,5530.3,12852,8884.9,8735.9
2959.8,3346.8,4192.9,7361,5520.5,12873,8881.7,8754.9
2960.4,3350,4220.1,7385.6,5504.1,12902.6,8874.5,8781.7
2957.5,3351.6,4239.4,7404.4,5489.5,12922.1,8864.6,8798.9
2954.7,3350.4,4237.7,7407.5,5484.1,12920.3,8857.8,8794.7
2955,3345.8,4222,7396.4,5485.6,12902.8,8856.7,8777.7
2961.7,3337.7,4197.2,7374,5489.7,12874.3,8861.6,8751.6
2967.6,3338.5,4174.8,7354.1,5499.3,12848.9,8867.4,8729
2973.9,3341.7,4169.7,7347.1,5505.4,12841.8,8872.6,8724.5
2977.5,3345.6,4181.9,7355.1,5503.2,12855.8,8874.1,8738.7
2977.3,3351,4204.9,7374.9,5496.4,12883.1,8870.3,8764.6
2973.2,3352.5,4227.4,7397.1,5484.5,12909.6,8863.3,8787.9
2969,3353.4,4236.8,7409.1,5476.2,12922,8857.2,8797.5
2966.8,3353.3,4226,7401.9,5480.6,12910.4,8856.1,8785.5
2966.9,3350.6,4203.9,7384.1,5502.6,12888.8,8863.9,8766
2967.8,3348.5,4180,7365.1,5520.1,12860.4,8871.5,8740.5
2972.1,3348.9,4165.7,7352,5528.5,12841.7,8877.8,8724.7
2976.1,3351,4173.8,7355.7,5527.2,12848.9,8880.3,8733.1
2977.5,3353,4191.4,7369.6,5519.7,12869.9,8878.2,8752.3
2975.2,3355.9,4216.5,7390.3,5507.4,12898.3,8873,8777.9
2970,3356.3,4237,7409,5494,12921.9,8865.4,8798
2966.6,3352.7,4233.4,7409.3,5486.9,12919.2,8859,8792.6
2978.7,3344.4,4215.9,7396.8,5477.8,12898.2,8850.8,8771.9
2986.9,3346.1,4192.1,7377.6,5481.6,12869.3,8850.5,8745.2
2989,3349.6,4169.2,7354.4,5494.7,12840.9,8858.1,8720.8
2998.1,3354.7,4164.1,7346.7,5496.8,12831.5,8862.6,8713.7
3023.9,3369.5,4169.5,7351.3,5471.7,12828.8,8855.8,8709.6
3030.9,3376,4184.8,7358,5460.9,12847.7,8855.7,8726.7
3027.3,3375.5,4208.1,7375.3,5456,12877.7,8855.5,8754.5
3017.8,3373.7,4219.7,7387.4,5451.9,12892.8,8853.8,8767.4
2994.5,3375,4215.5,7383.8,5455,12889.8,8857,8763.9
2963.5,3365.6,4198.6,7370.6,5496.3,12881.6,8874.1,8757.1
2954.8,3353.6,4180.1,7359.6,5525.2,12861,8885,8739.4
2962.5,3350.3,4167.6,7349.5,5533.9,12841.5,8889.6,8723.2
2970.6,3353.8,4175.2,7352.7,5531.6,12846.4,8891.3,8729.2
2974.1,3356.1,4192.9,7366.7,5523,12864.6,8888.6,8746.6
2973.3,3358,4217.2,7388.5,5512,12892.5,8883.1,8771.5
2971.5,3356.5,4236.6,7407.6,5500,12913.4,8875.7,8787.4
2971.7,3349.4,4237.7,7410.3,5489.4,12913.5,8871,8784.8
2969.3,3348.6,4222.6,7397.2,5492,12900.7,8870.2,8771.9
2970.9,3347.9,4200.4,7378.1,5501.2,12873.4,8871.8,8746.4
2974.7,3348.6,4177.7,7358.3,5513.6,12846.2,8876.6,8722.6
2978.8,3353.3,4173.2,7351.9,5521.4,12839.6,8880,8718.3
2981.9,3355.7,4187,7359.7,5517.3,12853.2,8879.8,8731.8
2981.3,3358.8,4206.1,7378.1,5507.5,12876,8876.2,8752.7
2978.5,3360.8,4229.9,7398.3,5497.3,12906.4,8870.5,8779.6
2973.3,3359.1,4238.5,7409.1,5502.4,12921.2,8869.4,8792
2965.9,3356.4,4232.2,7408.2,5506.3,12914.5,8867.4,8784.7
2962.9,3355.2,4216.1,7397.7,5509.5,12894.6,8866.5,8765.4
2965.4,3354,4192.3,7377.5,5518.6,12865,8869.9,8738.6
2969.6,3352.5,4179.4,7360.8,5525.1,12847.5,8872.8,8724.1
2973.5,3352.8,4185.5,7359.7,5524.4,12852.4,8875.2,8731.1
2975.2,3354.8,4200.9,7371.9,5518.7,12869,8874.9,8747.6
2974.2,3356,4220,7389.9,5506.4,12892.2,8869.8,8769.5
2984.3,3350.5,4235.8,7407.1,5481.9,12911.4,8855.8,8785.3
2986.5,3351.6,4236.6,7411,5472.2,12914.2,8847.7,8785.6
2982.2,3354.4,4223.4,7400,5478.7,12899.6,8849,8770.7
2987.9,3357.3,4200.5,7381.8,5485.7,12870.2,8851.6,8743.2
3015.8,3369.6,4169.9,7355.9,5477.1,12824.8,8850.3,8700.3
3028.6,3374.3,4157.1,7335.6,5482.4,12809.7,8858.9,8687.9
3031,3372.4,4166.2,7337.2,5488,12822.5,8866.5,8701.7
3027,3371.6,4186.1,7350.3,5484,12846.9,8870,8725.3
3004.7,3374.6,4218.6,7374.4,5472.7,12883.7,8870.2,8759
2968.6,3366.5,4236.7,7393.4,5494.4,12914.6,8877.7,8787.3
2952.3,3355.7,4233.6,7400.2,5509.7,12914,8879.2,8786.5
2954,3352.2,4220.8,7393.4,5512.7,12896.4,8876.4,8769.5
2959.6,3352.2,4197.5,7373.8,5520.2,12867.7,8878.2,8742.1
2965.2,3351.4,4179.7,7356.3,5527.6,12845.9,8882.3,8722.7
2971.3,3353.5,4181.9,7356.6,5529.6,12847.7,8885.6,8725.2
2976.1,3352.2,4195.9,7364.5,5524.4,12863.9,8886.3,8740.2
2980.6,3347.6,4220.7,7382.5,5509.4,12890.3,8883.9,8764.4
2978,3350.9,4241.4,7404.5,5497.2,12914.8,8876.4,8785
2974.4,3353.7,4243.4,7409.9,5493.3,12918.9,8870.5,8786.1
2971.9,3356.4,4230.4,7403.1,5498.1,12904.7,8868.7,8772.2
2972.7,3359.3,4209.9,7388.3,5509.2,12881,8869.3,8750.6
2977.2,3358.5,4185.3,7365.9,5522.9,12851.7,8875.2,8723.5
2981.8,3358.8,4176.8,7354.6,5530.3,12841.2,8880.9,8714.7
2984.9,3360.4,4185.9,7359.5,5531.4,12852.8,8883.9,8726.7
2984.7,3360.4,4201.2,7371.9,5538.8,12875.2,8888.6,8748.8
2979.2,3360.7,4228,7394.4,5530.8,12906.2,8884.8,8778.1
2973.7,3361,4243.7,7411.5,5518.5,12924.4,8876.9,8793.6
2969.3,3359.2,4240,7413,5513.8,12919.6,8870.9,8788
2966.2,3355.3,4226.8,7401.5,5514.8,12905.5,8867.4,8774.3
2967.9,3353.5,4201.4,7380.3,5523.6,12876.4,8870.4,8747
2973.3,3354.6,4182.9,7364.8,5532.4,12852.8,8875.4,8726.6
2979,3353.7,4180.3,7358.9,5531.5,12849.2,8877.7,8726
2994.1,3347.5,4190.2,7366.2,5513,12861.9,8870.8,8739.2
2999.8,3352,4212.2,7384.2,5497.9,12890.3,8864.5,8765.9
2992.9,3357.9,4233.3,7402.4,5488.4,12916.3,8859.3,8789.4
2991.6,3362.4,4237.4,7409.4,5479.4,12918.7,8852.1,8790.6
3013,3377.5,4218,7400,5460.4,12885.4,8841.7,8757
3021.2,3383.6,4189.7,7372.7,5466.7,12851.9,8846.4,8724.8
3024.5,3381.5,4164.5,7345.2,5485.6,12825,8857.9,8700.7
3025.6,3380.6,4156,7333.9,5496.5,12813.8,8867.7,8692.4
3009.2,3382.5,4172,7340.5,5496.8,12832.3,8875.8,8710.8
2978.5,3374.6,4192.4,7356.2,5523.6,12868.1,8889.6,8746
2964.5,3366.5,4223.2,7387.8,5529.5,12905.7,8890,8783
2962.2,3365.1,4241.7,7410.2,5516.5,12923.6,8879.8,8798.1
2961.6,3365.7,4239,7412.4,5509.8,12918,8872.6,8791
2961.4,3363.7,4225.2,7400.8,5510.8,12900.7,8869.1,8773.8
2963.2,3360.2,4201.3,7381.8,5517.7,12873.6,8869.8,8748.8
2969.3,3354.6,4181.2,7362.7,5524.9,12851.4,8875.3,8728.8
2979.2,3348.2,4181.1,7357.6,5522.2,12848.9,8881,8728.2
2982.5,3351,4193.4,7366.4,5516.9,12864.3,8881.1,8743.7
2981.3,3354.8,4214.9,7384.2,5507.8,12889.4,8877,8767.2
2977.5,3358,4239.2,7406.6,5496.2,12916.6,8868.9,8791.7
2971.7,3361.1,4245.4,7416.1,5491.4,12927.4,8861,8799.8
2967.4,3359.8,4233.8,7409.3,5492.5,12916,8857.8,8788.3
2967,3357.7,4213.5,7394.1,5498.6,12893,8858.5,8766.6
2970.5,3355.8,4187.6,7372.1,5512.2,12864.6,8864.9,8741.8
2976,3352.8,4172.9,7354.6,5535.2,12849.9,8877,8731.6
2976.8,3353.2,4184.4,7360.5,5538.8,12861.2,8881.3,8744.5
2976.5,3357,4203.8,7375.8,5529.8,12881.6,8879.1,8763.6
2973.4,3360.4,4230.5,7398.7,5514.4,12911,8871.7,8790.5
2966.9,3361.2,4246.4,7417.1,5501.7,12931,8862,8807.8
2962.4,3360.7,4243.2,7418.4,5498,12929.7,8857.2,8804.2
2960.6,3359.7,4228.2,7406.8,5501,12912.6,8855.8,8787.5
2963.5,3355.6,4200.6,7384.8,5508.7,12880.8,8857.2,8757.6
2982.6,3345.3,4175.6,7363.4,5507.4,12851,8856.2,8730.8
2994.2,3347,4173,7358,5506.7,12848.4,8857.7,8729.8
2992.8,3352.2,4185.5,7365.5,5504.6,12864.5,8859.5,8744.4
2995.4,3358.5,4207.3,7383.9,5492.3,12887.9,8855.3,8765.3
3015.9,3375.9,4223.4,7399.1,5460,12896.6,8841.2,8770.2
3019.6,3383.3,4224.1,7396.3,5451.8,12897.3,8838.5,8769.4
3016.9,3380.1,4212.8,7385.9,5460.9,12885.6,8841.9,8759.4
3013.2,3376.8,4193.6,7369.8,5472.9,12863.9,8848.4,8740.4
2997.9,3378,4175,7349,5487.2,12841.8,8860.4,8720.8
2973.6,3369.1,4165.5,7338.8,5529.5,12838.1,8881.8,8720.4
2963.9,3359.8,4178.9,7353.5,5544.5,12856,8889.5,8740.8
2966.8,3358.6,4201.1,7371.4,5533.8,12877.7,8885,8761.5
2967,3362.4,4229.4,7397.3,5516.3,12906.8,8876,8787.1
2961.8,3363.6,4247.2,7417.6,5500.5,12928.1,8865.2,8804.4
2957.4,3362.4,4244.9,7421.1,5494.1,12927.6,8857.5,8801.4
2958.5,3357.1,4228,7405.4,5496.4,12908.2,8856.3,8782.9
2965.3,3348.6,4203.8,7381.7,5501.5,12879.8,8861.4,8756.2
2971.2,3348.2,4182.4,7362.8,5511.3,12854.5,8866.4,8733.1
2977,3348.8,4178.7,7355.5,5517.7,12849.4,8871,8730
2979.9,3351.5,4191.5,7363.9,5515.9,12865.4,8871.1,8745.8
2978.1,3355.9,4216,7384.6,5507.5,12894.3,8865.1,8772.9
2974,3356.6,4240.7,7406.9,5494.6,12921.4,8857.1,8797.1
2968.3,3356.5,4249,7419.1,5486.7,12933.3,8850.2,8805.7
2965.2,3354.8,4236.5,7411.8,5491.5,12921.8,8848.4,8792.7
2965.8,3352,4215.3,7394.6,5513.3,12899.2,8855.8,8770.8
2964.9,3349.7,4192.6,7375.1,5528.8,12872.8,8862,8746.5
2967.2,3349.7,4180.6,7362.2,5534.7,12857.3,8866.2,8733
2969.9,3350.5,4188.6,7365.8,5532.1,12864.9,8867.8,8741.6
2970.5,3350.9,4207.4,7380.9,5522.9,12885.3,8864.6,8759.9
2968.2,3352.7,4234.3,7402.4,5508.4,12915.3,8858.6,8786.3
2962.8,3354.7,4251.5,7419.5,5495,12936.3,8851.1,8804.2
2959.4,3352.7,4247.2,7420.1,5487.4,12933.7,8845,8799.6
2971.1,3344.3,4228.7,7407.6,5476.9,12912.8,8836.9,8779.2
2977.7,3345.1,4204.4,7389.5,5480.1,12886.4,8836.9,8753.5
2979.8,3348,4180.5,7366.1,5493.9,12859,8846.1,8728.9
2989.2,3352.8,4177.6,7359.3,5495.9,12850.2,8851,8723.5
3014.9,3369.1,4180.5,7362.2,5471.8,12843.8,8844.2,8717.3
3022.4,3376.4,4194.7,7367.6,5461.1,12863.2,8844.9,8735.1
3017.9,3375.3,4217,7384.8,5455.3,12893.4,8844.7,8762.7
3008.9,3374.2,4227.7,7395.3,5451,12907.2,8843,8774
2987.1,3375.9,4224.9,7391.4,5452.9,12902.1,8845.4,8768.4
2957.6,3365.3,4210.7,7379,5492.2,12893.7,8861,8762.2
2950,3352.1,4190.9,7367.9,5519.8,12873.3,8870.7,8746.1
2956.3,3349.5,4176.9,7359,5526.3,12854.8,8873.6,8730.9
2962.6,3354.4,4185,7363.5,5522.9,12861.6,8874.2,8737.7
2964.9,3357,4202,7376.9,5513.7,12880.5,8870.7,8754.7
2964.2,3359,4227.1,7399,5500.7,12908.4,8864,8780.1
2962,3357.5,4245.3,7416.7,5487.5,12928.9,8856.6,8798
2963.3,3350.9,4244.9,7418.2,5478.9,12928,8852.7,8795.2
2962.6,3351.4,4228.6,7408.2,5482.6,12909.9,8851.3,8778.3
2964.3,3350.4,4204.7,7388.1,5492.6,12882.8,8853.8,8753.5
2968.9,3351.4,4184.8,7369.1,5504.6,12858.4,8859.1,8732.5
2974.5,3355.5,4179.5,7361.4,5513,12850.6,8863.3,8727.6
2977.7,3357.5,4189.8,7366.9,5511.2,12862.2,8864.8,8739.9
2977.6,3359.7,4211.1,7385.3,5502,12885.9,8862.3,8762.4
2974.6,3362.6,4235.5,7411.6,5491.4,12913,8856.2,8787.2
2970.1,3361.1,4244.2,7419.6,5497.7,12928.5,8856.4,8800.8
2964.1,3356.9,4236.9,7412.4,5503.4,12921.8,8855.8,8793.7
2962.2,3356.4,4219.4,7400.6,5507.9,12899.9,8855.6,8773.6
2963.6,3356.9,4196.1,7382.2,5516.2,12871.1,8858.2,8747.2
2966.5,3356,4183.4,7368.4,5522.5,12854.2,8861.1,8732.2
2969.4,3357.7,4188,7369.9,5522.1,12857.6,8863.5,8736.9
2970.2,3360.8,4204,7382.3,5514.9,12875.3,8862.4,8753.9
2970.4,3361.8,4228,7398,5500.5,12900.5,8856.2,8776.9
2978.6,3357.3,4243.2,7414.1,5476.2,12918.4,8841.8,8791.8
2979.8,3361,4241.5,7416.4,5468.6,12919.6,8834.3,8790.1
2975.1,3364.4,4227.9,7403.8,5475,12905.7,8835.3,8775.6
2980.3,3368.2,4203.2,7384.1,5482.6,12874.6,8838.3,8746.1
3008.4,3382.5,4170.9,7357.8,5474.3,12826.9,8836.7,8701.1
3021.9,3390.1,4157.7,7337.2,5479.6,12811.5,8846.2,8688.4
3025.3,3390.5,4167.2,7338.1,5485.5,12826.4,8855.4,8704
3023,3391.2,4187.6,7351.9,5482.4,12851,8860.2,8727.9
3000.1,3396.3,4216.6,7375.4,5472.1,12887.5,8861.5,8760.9
2964.5,3387.6,4232.1,7390.2,5496.3,12917.8,8871.4,8788.3
2949.8,3376.4,4230,7396,5513.3,12916.9,8873.9,8787.1
2953.1,3373.1,4216.8,7391.2,5517,12896.2,8872,8767.3
2958.7,3372.6,4194.3,7374.7,5522.5,12866.2,8873.6,8739.6
2965.1,3372.1,4178.4,7359.4,5528.6,12846.3,8877.5,8721.7
2971.2,3372.2,4181.8,7357.8,5528.8,12848.3,8879.5,8725.2
2974.2,3370,4196.8,7367,5520.2,12866,8879.3,8741.8
2978.1,3365.3,4222.3,7386.9,5503.1,12894.4,8877,8767.2
2975.2,3369.6,4241.8,7409.6,5490.7,12918.3,8870.3,8787.2
2972.1,3371.8,4241.5,7413.1,5487.5,12919.4,8865.6,8786.2
2971.8,3374.6,4228,7402.3,5494,12904.4,8865,8771.7
2973.3,3378.7,4205.4,7385.5,5506.3,12879.3,8867.1,8749.4
2977.7,3377.2,4181.9,7362.7,5518.6,12853.2,8873.3,8726.2
2982.4,3375.7,4174.4,7351,5524.4,12843.5,8878.7,8718.4
2985.2,3377,4184.4,7356.7,5523.6,12855.9,8881.2,8730.2
2984.4,3377.6,4201.3,7371.2,5528.8,12878.5,8884.3,8752.3
2977.2,3378,4229,7395.8,5519.4,12911.1,8879.4,8782.7
2970.1,3379.2,4247.1,7413.8,5504.7,12930.2,8870.3,8798.9
2965.7,3380.1,4241,7411.1,5500.7,12921.9,8864.4,8790
2964.3,3378.7,4227,7398.9,5503.5,12903.4,8861.8,8773
2965.6,3377.1,4202,7378,5511.8,12874.6,8865,8746.4
2969.9,3376.8,4183.8,7360.8,5519.6,12852.1,8870.8,8727
2975.8,3375.8,4184.2,7357,5518,12851.8,8873.3,8728.1
2991.7,3369.2,4196.8,7366.6,5498,12866.1,8865,8741
2997.4,3372.6,4219.1,7386.3,5482,12892.8,8857.5,8764.1
2990.7,3378.1,4240.8,7404.6,5472,12917.7,8852.4,8785.2
2989.5,3382.5,4245,7411.5,5462.7,12919.8,8845.5,8784.4
3010.5,3395.7,4225.1,7398.3,5444,12887.3,8835.1,8750.7
3018.5,3400.5,4197.3,7370.3,5450.8,12854.7,8839.6,8720.7
3022,3397.4,4172.9,7344.8,5469.3,12828.1,8851.2,8698.6
3022.3,3395.2,4164.4,7332.7,5480,12818.5,8861.5,8692.9
3005.4,3400.5,4179.6,7341.5,5479.8,12836.3,8869.4,8711
2975.3,3395,4198.1,7356,5507.4,12869.6,8884.6,8743.7
2960.2,3386.6,4229.4,7386.9,5512.1,12907.8,8885.4,8781.4
2957.7,3385.3,4247.5,7408.6,5499,12926.7,8875.6,8796.7
2957.9,3387.3,4244.3,7410,5493.4,12920.9,8869.5,8789
2958.9,3387,4228.2,7398.1,5496.7,12901.7,8868.1,8770.3
2962.4,3385.2,4202,7377.7,5507.6,12871.9,8871.7,8742.8
2970.2,3382.5,4180.8,7358.1,5516.8,12845.2,8878.3,8719.9
2981.2,3377.2,4181.4,7352.5,5514.7,12843.3,8885.1,8719.7
2985.7,3380.4,4195.8,7362.5,5509.6,12860.6,8886.6,8736.1
2985.5,3384,4219,7382.2,5499.2,12887.4,8882.6,8760.8
2982.1,3387.7,4241.3,7403.8,5488.2,12913.6,8875.7,8784.1
2977.5,3391.4,4248.2,7414.8,5483.8,12923.2,8868.8,8791.5
2975.3,3389.8,4234.6,7404.5,5487.6,12908.5,8866.9,8776.1
2976.2,3388.1,4213.2,7386.6,5497.1,12884.7,8869.8,8753.7
2980.1,3386.7,4189.2,7365.8,5512,12856.7,8877,8728.9
2985.1,3384.9,4174.8,7350.6,5535.1,12843.7,8889.5,8719.5
2986.6,3383.7,4185.7,7352.5,5539.3,12855.5,8894,8733
2986.1,3385.4,4206.9,7369.7,5530,12878.2,8892,8754.3
2983,3387.7,4233.3,7394.8,5516.1,12907.7,8884.8,8781.2
2976.9,3388.5,4250.4,7415.4,5503.1,12927.3,8875,8797.4
2972.1,3385.8,4248.1,7415.7,5498.7,12924.5,8869.4,8792.8
2969.6,3382.1,4233.4,7402.9,5501.7,12907.5,8867.8,8776.3
2971,3377.1,4206.4,7381,5508.7,12878.4,8869.7,8749.6
2989.4,3367.7,4181.5,7360.5,5506.9,12849.1,8868.6,8724.1
3001.5,3370.5,4179.4,7354.8,5505.7,12846.1,8870.4,8722.8
3001.1,3376.1,4191,7361.6,5503.3,12859.1,8871.9,8736.7
3002.9,3382.3,4215,7381.7,5488.9,12883.4,8866.4,8759.6
3021.3,3397.8,4230.6,7398.6,5453.2,12893.3,8850.2,8764.7
3023.8,3403.5,4231.6,7399.1,5442.9,12897.3,8846.1,8766.1
3021,3400.2,4219,7387.8,5452.1,12885.1,8849.4,8754.3
3016.8,3397.1,4199.1,7370.5,5463.4,12862.8,8855.4,8733.9
2999.9,3397.4,4181.9,7351.7,5476.5,12844.2,8866.9,8716.8
2974.8,3388,4171.5,7339.9,5520.1,12841.8,8889.1,8717.1
2966.8,3379.9,4184.9,7353.7,5538,12858.2,8898.1,8735.7
2969.3,3379,4206.9,7374,5527.9,12880.6,8893.5,8756.7
2969.4,3382.6,4233.9,7397.5,5510.6,12909.9,8884.7,8782.8
2966,3383.7,4251,7414.2,5495.9,12929,8874.7,8798.7
2961.7,3382.3,4248.5,7416.7,5489,12925.9,8866.7,8794.1
2961.1,3376.8,4233.6,7405.5,5488.9,12907.8,8863.9,8776.6
2967.9,3367.4,4210.4,7384.3,5493.4,12879.7,8868.1,8750.7
2973.2,3367,4188.4,7364.5,5504.4,12853.8,8873.5,8727.1
2977.2,3366.6,4187,7358.5,5509.1,12851.9,8876.8,8726.7
2979.4,3369.2,4201.6,7368.7,5506.4,12869.2,8875.9,8743
2977.7,3375.8,4223,7388.5,5499.8,12893.9,8870.7,8765.9
2972.7,3378.5,4244.5,7407.1,5489.2,12920.8,8863.4,8789.2
2965.8,3375.5,4252.7,7415,5482.1,12934.5,8857,8800
2960.6,3370.4,4240.9,7406.6,5487.1,12925.4,8855.3,8790.1
2958.4,3365.4,4218.4,7388.9,5510.1,12905.2,8862.6,8770.9
2959.8,3363.3,4196.5,7370.8,5527.8,12874.3,8868.7,8743.3
2968.5,3367.8,4185.8,7356.9,5537.8,12851.9,8875,8724
2973.9,3372.2,4193.5,7359.8,5537.5,12857.5,8878.5,8730.8
2973.9,3372.3,4211.2,7373.4,5528.5,12880.4,8876.6,8752.4
2970.5,3370.2,4237.4,7393.8,5514.5,12913.9,8871,8782.1
2962.6,3366.9,4257.1,7411,5499.7,12939.9,8861.8,8804.4
2957.5,3362.6,4253.5,7413.1,5492,12938,8853.6,8800.8
2970.6,3355.2,4234.8,7402.3,5484.1,12913.2,8844.8,8776.8
2979.8,3357.5,4210,7380.7,5489.9,12882,8844.8,8747
2982.3,3361.5,4188.6,7359.3,5503.8,12854.9,8851.9,8722.7
2990,3367.1,4183.7,7354.4,5506,12845.7,8855.6,8717.1
3013.7,3383.6,4188.3,7358.6,5480.7,12841.8,8847.5,8712.9
3019.4,3389.8,4204.4,7362.4,5468.1,12862.7,8846,8732.5
3014.1,3388.2,4227.8,7379.2,5461.5,12892.7,8843.7,8760.4
3004.8,3385.2,4236.7,7389.3,5457,12906.3,8841,8771.7
2980.7,3386.1,4231.7,7385.5,5459.3,12902.9,8843.5,8767.8
2949.2,3377.3,4215.4,7372.7,5499.6,12893.9,8859.4,8760.9
2939.2,3366.4,4196.5,7362.5,5528.1,12874.1,8869.7,8744.4
2946.1,3364.4,4184.1,7354.4,5535.4,12854.9,8873,8728.6
2953.4,3369,4192.8,7359.7,5532,12860.7,8873.3,8736.1
2956.2,3371.3,4208.5,7371.3,5523.9,12878.5,8870.7,8753
2955.6,3374.8,4233.7,7392.9,5511.2,12905.9,8864.1,8777.7
2953.5,3374.3,4251.1,7410.4,5497.5,12925.2,8856.5,8794
2954.3,3366.1,4251.4,7410.8,5487.3,12924.4,8852.2,8791.1
2954.6,3365.8,4236.9,7401.3,5490.6,12906.8,8850.4,8774.2
2957.4,3366.1,4210.9,7383.6,5502.5,12877.1,8853.2,8746.8
2961.8,3367.8,4189.7,7363,5514.7,12852.6,8858.9,8725.8
2966.6,3371.1,4187.2,7353.8,5521.9,12848.7,8862.9,8724.5
2969.5,3370.9,4198.9,7362.1,5519,12861.3,8863.9,8737.5
2969.8,3371.8,4220.4,7379.5,5509.1,12884.1,8860.9,8759.4
2967.4,3373.8,4244.9,7400.5,5498.5,12912.8,8855.9,8785.2
2961.7,3372.2,4253.7,7410.2,5504.1,12928,8855.3,8797.7
2955,3368.6,4247.3,7408.1,5508.2,12919.6,8852.8,8788.7
2952.9,3367.3,4229.9,7396.6,5512.4,12898.9,8852.9,8768.6
2955.5,3366.3,4204.9,7375.4,5522.8,12869.5,8857.7,8741.3
2961.1,3364.5,4191.8,7359.8,5530.6,12851.7,8862.4,8726.4
2965.3,3365.6,4196.5,7360.5,5530.1,12856.3,8865.6,8733.2
2965.6,3367.3,4212.7,7373.3,5521,12876.2,8864.3,8752.4
2964.5,3366.4,4235.5,7392.4,5504.6,12902.3,8857.2,8776.2
2972.9,3357.8,4252.6,7411.6,5477.9,12922.4,8841.5,8792.8
2974.4,3357.8,4250.3,7416.4,5468,12922.9,8832.1,8791
2969.9,3359.9,4234.6,7403.7,5473.4,12905.4,8832.7,8773.8
2975.2,3361.9,4211.7,7385.4,5479.4,12875.3,8834.5,8745
3003.5,3373.6,4183.5,7359.9,5468.9,12830.4,8832,8702
3015.8,3377.9,4171.8,7340.4,5471.7,12816.8,8839.7,8691.4
3016.1,3374.6,4180.8,7342.5,5476,12833.4,8846.7,8708.9
3010.2,3374,4202.2,7359.2,5471.6,12859.7,8848.2,8734.4
2987.9,3378.9,4233,7383.7,5461.8,12894.7,8847.8,8766.3
2953.1,3370.9,4247.5,7396.5,5487.7,12923.1,8857.5,8792.3
2937.5,3359.7,4242.9,7400.5,5506.2,12920.2,8860.5,8790.3
2939.5,3356.8,4229.8,7395.6,5509.6,12900.6,8858.1,8773
2945.3,3357,4205.6,7378,5516.3,12870.8,8860.1,8746.2
2951.6,3356,4188.6,7360.7,5523.4,12849.8,8864.9,8727.8
2957.7,3355.7,4192.8,7360.7,5523.4,12853.4,8867.4,8732.4
2960.5,3353.2,4207.4,7371.7,5515.1,12870.4,8866,8748.7
2962.8,3347.9,4232.5,7390.7,5496.8,12898.4,8861.8,8774.8
2958.8,3350.5,4252.9,7411.7,5482.8,12922.7,8852.7,8796.3
2954.3,3351.3,4253.5,7418.1,5478.8,12924,8845.5,8795.9
2953.2,3351.9,4239.2,7410.6,5485,12907.4,8843.7,8779.9
2955.4,3352.6,4219.9,7392.1,5497.3,12883.2,8844.9,8757
2960.3,3351.2,4196.4,7367.6,5510.4,12854.1,8849.9,8730.9
2964.2,3351.3,4188.7,7358.8,5515.9,12844.5,8855,8724.4
2967.6,3352.7,4199.9,7365.5,5515.3,12857.8,8857.2,8737.5
2967.6,3352.4,4217.7,7379.4,5522.4,12883.3,8861.3,8761.7
2961.4,3352.3,4242.5,7402,5516.1,12913.9,8858.1,8789
2955.1,3352.5,4256.2,7417.6,5504.6,12930,8850.5,8802.1
2950.9,3352.2,4249.9,7417.6,5501.1,12921.4,8845,8792.9
2949.1,3349.7,4236.2,7407.1,5503.2,12903.6,8841.9,8776.2
2950.9,3347,4211.9,7386.3,5511.2,12874.3,8844.1,8748.3
2955.1,3347.9,4193.4,7369.1,5520.8,12852,8849.7,8729.1
2960.6,3348.2,4192.2,7364.7,5520.3,12850.8,8852,8729.2
2976.5,3341.9,4203.1,7374.1,5501.7,12864.3,8844,8741.6
2982.3,3345.3,4224.8,7394.9,5486.6,12890.5,8836.9,8765.3
2975.9,3350.2,4245.6,7413.2,5477.7,12915.6,8832,8787.5
2975.2,3353.7,4247.4,7416.5,5469.6,12916.9,8826.4,8786
2996.7,3367.3,4227.3,7402.7,5450.7,12884.9,8816.3,8753.5
3004.5,3370.8,4198.7,7373.7,5457.2,12854.4,8821,8725.4
3007.6,3367.5,4171.7,7347.5,5477.2,12826.6,8833.4,8701.6
3008.8,3364.7,4163.6,7334.9,5488.4,12816.7,8844.7,8695.8
2993.1,3368.1,4181,7342.6,5487.4,12835,8852.4,8715.1
2962.3,3361.5,4201.2,7357.8,5513.8,12870.2,8866.5,8749.4
2946.5,3353.7,4233.5,7390.9,5518,12909.5,8867,8787
2942.7,3352.7,4249.3,7414.9,5504.5,12927,8857.2,8801.8
2940.4,3355.1,4242.5,7416.4,5498.6,12920.6,8851,8794.3
2943.3,3356,4223.5,7400.8,5504.6,12898.7,8851.2,8773.9
2949.2,3355.6,4196.7,7377.4,5517,12866.3,8856.2,8743.9
2957.3,3353,4177.9,7357.6,5526.4,12842.2,8863.4,8722.6
2969.2,3348.6,4178.4,7352.2,5525.9,12840.1,8870.5,8722
2974.7,3352.6,4192,7363.6,5522.4,12855.5,8872.3,8736.4
2975.7,3356.5,4216,7383.2,5513.3,12883.2,8869,8761.9
2972.4,3360,4237.5,7404.7,5503,12910.3,8862.4,8785.5
2966.6,3362.6,4242.1,7413.4,5499.7,12919.9,8856,8792
2964.2,3361,4230.3,7404.7,5503.4,12906.1,8853.9,8777.5
2965.7,3359,4209.2,7388.9,5512.6,12881.1,8856.4,8753.9
2971.1,3357.5,4182.6,7365.9,5529.8,12850.4,8864.9,8726.7
2977.4,3356.3,4170.2,7351.3,5552.5,12837,8878,8717.8
2977.4,3354.9,4181.8,7357.1,5555.7,12850.3,8882.9,8732.6
2976.1,3356.4,4202.8,7373.8,5545.2,12874,8880.7,8754.3
2972.3,3359,4229.4,7397.8,5529.4,12904.1,8873.6,8781.4
2966.4,3358.7,4248,7416.4,5514.9,12926,8863.5,8799.9
2961.2,3357.6,4242.8,7416.4,5511,12921.2,8858.2,8794
2960,3356.2,4226.8,7404.6,5514.4,12900.7,8856.9,8775.3
2963.4,3353.3,4199.8,7382.7,5521.5,12868.5,8858.9,8745.9
2981.8,3344.8,4177.2,7363.8,5518.1,12840.1,8856.7,8720.9
2994.2,3347.7,4176.5,7360.2,5515.9,12838.4,8857.4,8720.5
2994.2,3353.2,4189.7,7368.1,5513.3,12854.4,8859.9,8735.9
2997.3,3359.4,4213.2,7387.2,5499.8,12879.1,8855.9,8758
3017,3375,4228.5,7403.8,5465,12887.3,8840.3,8761.5
3018.9,3380.1,4228.2,7401.7,5454.6,12890.7,8836,8762.2
3015.1,3377,4215.9,7389.9,5462.6,12880.7,8839.3,8752.3
3011.3,3374.6,4197.1,7373.8,5472.3,12858.6,8845.4,8732.2
2994.5,3374.5,4178.7,7355.6,5482.9,12838.6,8856.9,8715.2
2968.2,3364.7,4169.1,7343.4,5523.8,12838.6,8879.2,8718.5
2959.8,3355.1,4184.2,7357.7,5538.1,12856.9,8887.3,8739
2962.2,3355.4,4204.4,7378.8,5526.3,12877.3,8883.2,8758.6
2963,3360.7,4232.2,7402.6,5508.1,12906.5,8875.2,8784.5
2959.2,3364.1,4250.8,7419.4,5492.4,12926.7,8865.3,8801.1
2954.6,3363,4247,7420.3,5486.3,12924.3,8858.8,8797.2
2955.4,3358.9,4229.8,7407.5,5489.5,12903.7,8858.1,8777.1
2963.3,3351.2,4205,7384.3,5495.9,12874,8863.3,8748.7
2970.4,3352.2,4184.6,7366.1,5506.7,12848,8869.2,8725.9
2976.1,3354.6,4182.2,7361.2,5511.8,12844.1,8873.5,8724.5
2977.8,3358.4,4195.7,7370.5,5508.2,12862.5,8874,8742.7
2976.3,3363.9,4218.8,7389.5,5499.4,12891.3,8869.6,8769
2971.7,3366.2,4242.4,7410.6,5486.2,12918.7,8862,8793.9
2966.1,3367.5,4248.1,7421.3,5478.4,12927.2,8854.9,8800.5
2963.4,3367,4234.9,7414.6,5483.2,12914.7,8853.8,8787.6
2963.5,3363.8,4211.7,7396.1,5505.5,12890.3,8861.4,8764.6
2964.2,3360.5,4190,7377,5521.7,12862.4,8867.9,8739.5
2967.8,3360.5,4179.4,7364.7,5527.6,12848.2,8872.6,8728.2
2970.7,3362.2,4189.8,7369.8,5523.7,12859.3,8873.5,8739.2
2971.5,3362.8,4208,7385,5515.6,12879.7,8869.9,8757.2
2968.9,3364.1,4234.3,7405.9,5502.6,12909.3,8863.1,8783.6
2963.3,3366.5,4253.7,7424.8,5489.4,12931.8,8854.2,8802.6
2959.4,3365.4,4247.3,7425.1,5482.8,12925,8846.7,8794.2
2971.5,3356.5,4227,7412.8,5474.5,12901.3,8838.6,8771.6
2980.7,3355.9,4200.7,7391.9,5480.4,12871.8,8838.8,8743.4
2982,3358.3,4179.6,7370,5493.9,12847.8,8846.4,8722.9
2989.7,3362.3,4176.9,7363.9,5495.9,12840.4,8850.1,8718.2
3014.6,3378.1,4183.7,7369.6,5470.1,12838,8841.7,8715.4
3021.1,3384.5,4199.6,7376,5458,12856.9,8840.3,8733.2
3015.6,3382.5,4221.9,7392.1,5452,12887.7,8838.6,8761
3006,3381.5,4230.4,7402.6,5447.3,12900.1,8836.2,8770.8
2982.9,3382.5,4226.2,7397.7,5449.7,12896.4,8839.3,8766.4
2951.3,3371,4209.3,7382.4,5490.9,12887.6,8855.9,8759
2942.2,3358.5,4190.5,7371.2,5520.2,12867.1,8866.8,8742.7
2949.7,3354.6,4179.5,7362.7,5526.7,12850.7,8869.8,8729.2
2956.1,3357.6,4187.7,7368.9,5522.7,12858.6,8870,8737.7
2958,3361,4203.7,7383.1,5514.2,12877,8866.5,8754.6
2957,3363.2,4230.3,7403.8,5499.4,12905.9,8858.9,8780.3
2954.3,3360.2,4249.5,7419,5483.5,12927.7,8850.4,8798.6
2954.8,3352.8,4248.4,7420,5472.8,12926.1,8846,8794.9
2954.7,3353.7,4231.7,7410.5,5475.6,12907.1,8844,8776
2956.3,3353.6,4207.4,7391.3,5485.3,12878.5,8846.3,8749.5
2960.3,3353.6,4187.6,7372.7,5496.4,12855.3,8850.8,8729.2
2964.6,3358.3,4185.1,7367.9,5502.7,12850.5,8853.6,8726.7
2967.7,3361,4197.2,7375.6,5499.3,12862.8,8853.8,8739.8
2966.1,3362.9,4217.9,7391.8,5489.4,12887.2,8849.9,8763.1
2960.8,3364.9,4241.7,7413.5,5479.4,12917.2,8843.5,8790.2
2955,3363.5,4249.1,7423.6,5485.1,12930,8841.7,8800.7
2948.4,3360.3,4240.9,7420.5,5490.3,12920.8,8839.5,8790.9
2945.8,3358.3,4224,7407.9,5493.5,12900.4,8838.7,8771
2947,3356.8,4200.4,7388,5501.5,12872.1,8841.3,8744.9
2950.9,3355.3,4186.7,7373.8,5508.6,12854.2,8844.5,8729.6
2953.9,3356.5,4192.2,7376.1,5507.5,12861.4,8846.9,8738.3
2954.3,3358.7,4208.8,7388.7,5499.2,12880.8,8845.1,8757.6
2953.3,3357.3,4229.9,7406.2,5484.2,12906.1,8838.3,8781
2962.5,3349.4,4243.6,7423.2,5458.8,12923.8,8823,8795.1
2966,3350,4242.1,7426,5450.4,12925.1,8815,8793.3
2964.1,3352.2,4227,7411.3,5459.2,12907.3,8817.7,8776.4
2970.1,3355.8,4203,7392.8,5467.5,12877.3,8821,8749.4
2998.8,3369.3,4171.4,7366.1,5460,12830.5,8820.5,8705.9
3012.3,3374.9,4159.3,7344.9,5464.5,12816.1,8829.5,8694.6
3014,3372.5,4168.8,7346.5,5468.7,12832.2,8837.4,8711.7
3010.3,3372.4,4190.9,7361.7,5463.7,12857.6,8840.1,8736.2
2987.6,3376.5,4224.2,7386.8,5450.5,12895.3,8839.4,8770.7
2951.5,3368.3,4237.3,7399.9,5474.7,12922.1,8848.2,8794.3
2935.3,3358.6,4235.2,7406.4,5490.3,12920,8850.5,8792.8
2936.7,3356.1,4222.1,7401.3,5492,12900.9,8847.9,8775.6
2941.9,3355.6,4196.8,7382.8,5498.2,12869.5,8849.4,8746.3
2947.6,3355,4182.5,7366.7,5503.5,12850.8,8852.8,8729.4
2952.6,3354.3,4189.5,7368.7,5501.2,12855.5,8853.5,8735.1
2955.8,3351.9,4205,7380.1,5491.4,12871.7,8851.7,8750.5
2958.1,3347.5,4230.3,7399.4,5472.3,12898.9,8847.6,8775.6
2954.2,3349.8,4249.8,7417.8,5458.3,12922.8,8839.5,8796.3
2950.8,3351.7,4248.7,7421.5,5455.2,12923.6,8833.8,8795.3
2949.8,3353.5,4236,7412.6,5460.6,12908.3,8832.5,8780.7
2951.1,3356.8,4214.1,7395.6,5472.4,12883.3,8834.2,8757
2955.9,3357.5,4189.9,7373,5485.3,12853.9,8840.3,8730.1
2962.2,3357.9,4183.1,7363.1,5492,12842.7,8845.9,8721
2966.1,3358.3,4193.8,7369.4,5493,12855.7,8849.5,8734.3
2966.4,3358,4209.5,7382.2,5500.7,12879.5,8854.8,8757.1
2960.8,3358.1,4236.9,7406.1,5492.7,12911.7,8850.3,8787.2
2954.6,3358.7,4251.7,7421.8,5480.6,12928,8842,8800
2950.4,3358,4244.3,7419.1,5477.8,12919.1,8837,8789.5
2949.6,3357.2,4228.8,7408,5481.4,12900.2,8835,8770.6
2952.8,3356,4203.8,7387.8,5491.3,12870.8,8839.1,8743.6
2957.9,3354.3,4186.5,7371.5,5500.5,12849.5,8845.5,8726.4
2963.7,3352.6,4185.9,7367,5500.8,12850,8848.9,8729.7
2979.9,3345.8,4195.5,7373.4,5483.4,12863.2,8842,8742.3
2985.9,3349,4217.7,7392.6,5468.8,12890.7,8835.4,8767.5
2979.6,3354.5,4237.3,7411.5,5460.2,12914.6,8830.8,8787.4
2978.9,3358.7,4241.1,7421.3,5450.9,12915.5,8823.7,8786
3000.9,3370.3,4219.9,7406.6,5433,12879.8,8814.2,8750.3
3010,3373.8,4192,7374.8,5440.5,12848.5,8820,8720.9
3014.2,3369.8,4166.4,7349.4,5460.6,12822.3,8832.7,8697.9
3014.7,3367.8,4157.7,7338.5,5472.1,12813.6,8844,8692
2998,3370.4,4175.2,7347.7,5470.8,12834.2,8852.2,8713
2966.5,3363.8,4197.8,7365.1,5494.9,12871.5,8865.5,8749.8
2951.5,3357.2,4226.6,7395.9,5499.7,12907.8,8866.9,8784.8
2949.5,3355.9,4243.9,7417.6,5487.5,12926.6,8858.7,8800.4
2949.8,3358.1,4237.7,7418,5483.5,12918.9,8853.6,8790.9
2951.8,3358,4221.1,7405.7,5486.9,12896.4,8852.6,8769
2957.4,3356.5,4198.2,7384.9,5495.9,12867.7,8856.3,8743
2966.3,3352.6,4178.1,7364.1,5504.8,12843.2,8863.8,8721.6
2977.6,3347.3,4179.2,7358.9,5503.9,12842.3,8871.3,8722.3
2981.7,3351,4192.9,7370.1,5498.9,12859.4,8871.9,8738.7
2981.9,3355.2,4216.4,7390,5489.2,12886.2,8867.9,8763.4
2978.8,3359.4,4239.3,7411.3,5477.7,12912.7,8860.9,8786.6
2974.4,3364,4242.6,7419,5475.2,12919.8,8854.8,8790.4
2971.6,3364,4229.2,7409.4,5479,12905.8,8853.6,8776.9
2973.3,3363.4,4206.5,7390.5,5488.1,12879.6,8856.8,8752.6
2978.8,3363.3,4181.9,7368.9,5504,12850.8,8865.4,8727.3
2984.3,3363.5,4168.6,7355.8,5526.8,12837.8,8879,8717.7
2985.2,3364.4,4179.2,7363.6,5530.9,12850.1,8884.5,8730.8
2985.5,3367.4,4200.3,7380.4,5522.4,12871.6,8883,8750.7
2982.8,3368.9,4227.8,7403.9,5506.6,12902.6,8876.3,8779.2
2976.9,3369,4243.8,7421.9,5492.6,12922.7,8867.4,8795.9
2973.8,3368.9,4238.1,7420.8,5489.9,12916.7,8863.9,8788.8
2973.6,3368.4,4223.2,7408.4,5493,12897.5,8863.8,8772
2977.5,3364.4,4195.7,7385.5,5499.7,12865.1,8866.6,8742.6
2996.2,3355.3,4171.9,7366.2,5496.2,12837.7,8865.8,8718.2
3009,3358,4171.3,7362.1,5493.8,12836.8,8868.1,8718.5
3010,3362.2,4186.3,7368.9,5490.8,12852.8,8870.9,8733.8
3012.6,3368.3,4211.6,7388.7,5475.4,12879.3,8865.9,8757.5
3031,3385.5,4227.7,7406,5439.8,12888.8,8849.7,8762.7
3033.2,3391.6,4228.6,7404.4,5429.2,12890.3,8845.5,8761.2
3030.1,3387.7,4216,7393.1,5438.1,12878.8,8849.4,8750
3025.4,3384.6,4193.2,7374.3,5450.9,12855.9,8856.9,8729.6
3008.9,3384.8,4173.6,7354,5465.1,12834.5,8869,8710.8
2983.7,3374.6,4167,7344.2,5506.4,12835.6,8890.4,8715.2
2982.6,3358.1,4182.2,7363.2,5518.5,12854.4,8895,8736.5
2991.3,3353.4,4203.5,7384.4,5506.9,12876.1,8887.7,8757.3
2989.9,3359.3,4230.4,7407.1,5491.1,12904.2,8879.9,8782.6
2985.1,3362.4,4247.8,7423.9,5477,12923.1,8870.3,8799.4
2979.9,3363.7,4243.3,7425.1,5472.8,12918.6,8863.7,8794
2979.1,3360.1,4227.9,7412.3,5474.5,12899.9,8862.4,8775.6
2985.8,3351,4203.4,7391.2,5478.5,12871.2,8866.6,8749.2
2990.3,3351.3,4181.2,7371.5,5488.5,12845.7,8871.6,8727.2
2994.1,3352.7,4180.7,7366.6,5493.5,12842.9,8875.5,8727.9
2995.2,3356.6,4196.3,7378.1,5490.6,12859.7,8874.4,8743.9
2992.3,3362.5,4220.5,7398.4,5482.9,12888.2,8869.4,8770.2
2987.3,3363.4,4242.6,7417.3,5472.1,12914.7,8862.7,8793.5
2981.3,3364.3,4249.3,7426.4,5464.9,12923.5,8855.8,8799.6
2978.2,3363.9,4237.8,7418.1,5469.8,12910.5,8854.7,8786.4
2976.5,3361.3,4215.9,7399.3,5492.1,12887.8,8862.4,8765.9
2976,3357.7,4193.9,7379.4,5508.4,12861.3,8868.6,8741.8
2979.5,3357.1,4183,7367.3,5514.5,12846.2,8872.6,8729
2982.6,3357.8,4193.5,7373.2,5510.8,12855.7,8872.9,8739.4
2982,3359.2,4215.2,7390.4,5500.1,12878.3,8867.8,8760.3
2977.2,3360.7,4242.1,7411.1,5485,12908.9,8860.5,8787.4
2969.3,3361.3,4260.6,7428.6,5470.1,12931.5,8850.6,8806.8
2961.8,3359.1,4256.7,7427.9,5462.5,12928.4,8841.6,8801.6
2961.2,3359.9,4236,7412.1,5458.2,12904.6,8836.3,8777.8
2966.1,3363.4,4208.7,7391.3,5466,12873.1,8839.1,8748.8
2970.8,3362.8,4188.6,7370.4,5477.5,12850,8845.8,8728.9
2979.4,3366.7,4186.9,7365.1,5477.8,12844.9,8848.9,8726.3
3000.9,3383.3,4192.9,7371.2,5451.8,12842.3,8840.7,8723.5
3009.1,3387.7,4209.2,7380.4,5437.2,12862.3,8837.5,8742.9
3005.7,3384.5,4230.1,7398.1,5430.4,12891.6,8834.7,8770.2
2999.5,3380.4,4238.4,7407.6,5426.4,12902.4,8831.6,8779
2988,3373.5,4233.9,7406.4,5425.1,12897.9,8830.8,8773.3
2970.6,3354.4,4215,7393.1,5461.5,12887.4,8841.4,8763.4
2963,3342.8,4198.3,7376,5489.8,12869,8851.3,8748.5
2966.1,3345,4188,7368,5497,12852.6,8855.5,8735.2
2970.4,3350.5,4195.1,7375.1,5493.2,12859.2,8856.7,8742.6
2970.8,3353.1,4212.2,7387.1,5484.3,12879.3,8853.5,8761.1
2967.9,3355.8,4238.2,7406.9,5471.9,12909.2,8847.3,8788.3
2964.4,3355,4254.7,7422,5459.2,12929,8840.5,8805.4
2965.4,3348.4,4251.4,7420.2,5450.9,12925.6,8837.3,8800.4
2965,3349.4,4236.2,7410.4,5453.9,12908.3,8835.9,8783
2966.2,3349.2,4210.7,7389.9,5464.9,12879.3,8838.9,8756.1
2970.2,3351.3,4190.1,7371.6,5477.7,12855.1,8844.9,8735
2974.6,3357.2,4187,7366.4,5486.1,12849.5,8849.3,8731.7
2976.8,3359.3,4198,7372.2,5485.3,12862.5,8851.5,8746
2976.7,3360.8,4220,7388.4,5476.7,12887.2,8849.1,8770.1
2973.9,3362.7,4243.5,7408.7,5467.6,12915.4,8844.2,8795.3
2965.9,3363.2,4249,7418.9,5473.6,12928.6,8843.9,8805.7
2958.2,3360.4,4240.2,7417.1,5478.7,12918.7,8841.9,8795.5
2957,3357.7,4222.7,7404.5,5483.6,12896,8841.7,8774.3
2959.8,3354.9,4199.1,7384.5,5492.1,12867,8844.8,8747.6
2962.7,3353.5,4187.5,7372.5,5497,12852.4,8847.8,8734.7
2963.1,3355.1,4193.8,7374.4,5494.9,12859.9,8849.7,8742.3
2963.4,3358.6,4210.7,7388,5486.4,12878.5,8847.7,8759.6
2960.5,3361,4233.9,7406.7,5471,12904.6,8840.7,8783.2
2955.6,3362.6,4248.3,7421.5,5449.4,12922.9,8829.2,8798.4
2952.2,3363.4,4246.6,7427,5440.6,12922.2,8821.7,8795.9
2949.6,3360.2,4233.4,7415,5444,12906.2,8819.3,8780.4
2955.3,3359.9,4211.6,7396.4,5449.9,12876.6,8819.7,8753.1
2979.5,3372.9,4183.2,7371.1,5440.3,12832.6,8817.3,8712.2
2994.1,3374.9,4172.1,7352.5,5443.4,12819.4,8823.1,8702
2998.2,3371,4183.3,7357.1,5446.8,12834.9,8827.9,8717.8
2995.6,3368.8,4204.8,7374.6,5440.3,12860.4,8827.3,8742.4
2982.6,3364.3,4234.5,7399.6,5425.5,12894.8,8822.3,8773.8
2960.6,3347.9,4247.9,7413.4,5446.4,12920.3,8825.3,8796.6
2945.4,3339.1,4245.9,7416.3,5463.1,12920.8,8826.2,8796.4
2943,3339.6,4231,7406.7,5468.6,12899.2,8825.2,8776.1
2946.8,3341.1,4207.1,7387.5,5475.8,12868.8,8827.9,8748.1
2952.6,3341.7,4191.8,7371.4,5483.5,12849.1,8832.5,8730.9
2956.5,3343.1,4196.1,7371.1,5484,12852.3,8835,8735.4
2957.8,3341.1,4212,7382.7,5475.8,12869.7,8834.1,8752
2960.4,3335,4238,7403.4,5457.7,12898.9,8829.8,8778.2
2956.4,3337.4,4256.9,7422.3,5445.5,12922.4,8821.7,8797.5
2950.4,3337.5,4255.7,7425,5442,12923.1,8815.4,8796.5
2946.2,3338.1,4243,7416.5,5444.6,12909.4,8812.7,8783.3
2945.7,3339.6,4219.6,7399.2,5455.9,12882.9,8814.5,8758.9
2950.6,3339,4196.8,7377.9,5468.8,12854.9,8820.9,8734
2954.5,3339.7,4189.3,7368.3,5475.9,12846.5,8826.9,8728.6
2956.4,3340.9,4198.9,7373.9,5477,12860.9,8830.8,8743.1
2951.5,3338.2,4215.7,7386.2,5482.7,12889,8834.8,8769.8
2940.7,3335.3,4239.8,7410.7,5474.3,12922.3,8829.1,8799.7
2932.3,3334.6,4252,7424.8,5463.7,12939,8820.2,8812.3
2930.3,3337.2,4246.2,7422,5463.4,12928,8814.7,8799.7
2934,3343,4232.2,7411.7,5470.4,12901.2,8813,8773.8
2940.7,3347.4,4208.1,7390.2,5483.6,12866.1,8818.4,8740.9
2947.1,3348.3,4189.5,7370.7,5494.4,12843.1,8826.3,8721.5
2951.2,3348.5,4189.5,7366.4,5494.7,12845.6,8830.6,8725.5
2953.3,3348.4,4199.6,7372.6,5481,12860.6,8828.2,8740
2952.5,3352.4,4222.1,7393.4,5466.7,12889.1,8823.9,8766.5
2948.3,3354.5,4240.4,7413.5,5457.3,12912.1,8818.4,8787.3
2950.6,3360.2,4242.7,7420.1,5450.8,12909.4,8812.7,8783.5
2973.5,3379.6,4223.1,7407,5435.4,12871.6,8805,8744
2990.4,3385.1,4194.3,7378,5443.5,12833.1,8811,8707.1
3000.5,3381.7,4171.5,7351.8,5462.2,12806.8,8823.6,8683.8
3005.6,3377.4,4162.5,7340,5472.6,12798.3,8835.2,8678.6
3000.9,3373.4,4179.5,7349.8,5468.8,12818.6,8840.5,8699.2
2985.6,3360.1,4201.7,7367.2,5490.9,12855.2,8850.1,8733.9
2972.9,3355,4232.6,7395.8,5495.9,12893.4,8850.5,8768.9
2967.4,3359.3,4248.4,7414.9,5485.2,12910.7,8844.3,8782.7
2966.8,3363.4,4241.2,7414,5480.2,12900.2,8839.8,8770.9
2967.4,3363.8,4224,7401,5482.8,12878.5,8839.3,8750.2
2969.4,3362.2,4200.9,7382,5490.3,12851.7,8842.2,8724.8
2975.5,3357.5,4184,7362.5,5496.4,12831.1,8847.9,8706.5
2984.8,3350.6,4188.6,7360.8,5490.4,12833.6,8852.4,8710
2987.2,3353.5,4203.2,7372.7,5483.2,12850.5,8851.6,8725.7
2984.8,3357.2,4224.5,7391.3,5474.2,12877.2,8848.5,8750.3
2980.4,3360.8,4246.8,7412.2,5463.4,12904,8842,8773.5
2975.1,3365.4,4250.9,7420.1,5460.4,12910,8835.6,8776.7
2973,3365.4,4238.9,7410.5,5463.7,12895,8834.8,8761.7
2973.2,3363.4,4218.7,7393.4,5470.7,12872.3,8837.2,8740.3
2977.3,3360.7,4194.2,7370.7,5485.6,12845.2,8844.7,8715.2
2981.4,3358.3,4181.8,7356.2,5508.6,12834.2,8858.5,8707.1
2981.8,3357.2,4191.9,7363.4,5511.6,12847.9,8863.7,8721.4
2980.9,3358.3,4211.9,7380.4,5501.2,12872,8861.9,8744.1
2976.8,3360.5,4238.2,7404.3,5485.8,12901.7,8855.2,8771.7
2970.7,3360,4254.8,7420.6,5473.1,12921.6,8846.1,8788.7
2965.3,3358,4249.1,7419.2,5471.1,12916.3,8842.1,8782.8
2964,3356.2,4232.1,7407,5476.3,12896.9,8842.6,8764
2966.6,3353.1,4205.8,7384,5485.2,12865.9,8846.3,8735.7
2972.9,3352.1,4183.5,7361.9,5487,12839.9,8849.7,8712.7
2979.5,3353.4,4182.5,7359.7,5486.3,12838.8,8853,8713.7
2981.4,3351.8,4197.4,7371.1,5481.8,12856.2,8853.5,8731.4
2984.2,3355.8,4222.6,7393.6,5467.7,12882.5,8848.1,8755.2
3000.2,3372.2,4236.9,7408,5434.9,12890.3,8833.4,8759
3005.1,3373.2,4235.4,7405.6,5424.8,12890.3,8828.3,8757.5
3004.1,3366.7,4221.7,7394.1,5432.8,12877.6,8830.8,8745.6
3004.1,3361.2,4199.8,7377,5445.1,12853.6,8837.5,8724.3
3000.3,3354.3,4181.3,7360.3,5456.1,12832.3,8846.4,8706.2
2989.3,3337.2,4173.5,7349.9,5494.3,12832.8,8863.5,8709.8
2982.5,3331.6,4188.4,7361.6,5510.8,12852.2,8871.8,8730.4
2982.6,3337.1,4208.6,7379.9,5504.3,12873.7,8871.1,8751.2
2982.5,3343.3,4234.5,7402.6,5490,12902.5,8866.3,8777.5
2980,3346.1,4249.4,7417.1,5479.5,12919.5,8860.1,8791.5
2976.6,3345.6,4243.9,7414.6,5477.9,12913.6,8856.5,8784.4
2977.4,3341.6,4226,7399.8,5482.2,12893.3,8858.3,8765.8
2985.9,3332.6,4201.1,7379.7,5487.7,12862.7,8864.8,8738.2
2992.7,3333.9,4179.8,7362.3,5498.6,12837.1,8872.1,8716
2998.6,3337,4178.4,7355.7,5504.9,12835.7,8879.4,8716.4
3001.8,3342.2,4194.1,7367.4,5502.4,12853.2,8881.1,8733.1
3000.1,3348.4,4218.5,7388.1,5494.5,12881.7,8877.4,8759.5
2996.1,3350.9,4242.2,7408.5,5482.8,12909.3,8871.4,8783.3
2991.2,3350.8,4249.2,7417.6,5475.4,12918.4,8865.3,8789.6
2988.6,3349.2,4236.6,7409.5,5480.1,12904.3,8864.8,8775.4
2987.8,3347.2,4211.6,7390,5504.2,12879.2,8874.4,8752.8
2989,3344,4189.8,7370.9,5521,12852.9,8882.5,8730.8
2992.6,3343.3,4181.3,7361.1,5525.9,12839.7,8887.2,8721.2
2994.5,3343.7,4191.8,7367.3,5521,12849.3,8887.2,8731.8
2993.9,3344.7,4213.2,7384.5,5510.4,12871.5,8882.7,8753.5
2989.7,3346.5,4242.1,7408.4,5494.9,12903.8,8875.9,8782.9
2982.9,3347.3,4259.9,7427.7,5480.5,12925.3,8867,8801
2976.7,3346.1,4253.7,7426.6,5473.4,12918.7,8859.8,8792.7
2975.3,3346.4,4234.2,7411.1,5467.7,12895.9,8854.4,8770.3
2978.7,3347.7,4208.8,7392,5473.8,12867.3,8856.1,8744.1
2983.7,3345.8,4187.7,7370.7,5486.3,12843.2,8863.3,8723.7
2993,3348.6,4186.8,7365.9,5486.2,12839.1,8866.3,8721.5
3015.5,3366.6,4193.6,7371.9,5459.9,12837.4,8858.4,8718.1
3024.3,3372,4210.7,7381.2,5444.8,12857.8,8855.4,8737.6
3021.7,3369.1,4234.1,7399.1,5435.5,12888.5,8851.7,8767
3014.5,3364.6,4241.2,7409.2,5429.3,12899.5,8848.1,8776.9
3001.2,3357,4235.9,7407.8,5427.6,12894.6,8846.6,8772.8
2983.4,3338.5,4217.8,7395,5464.6,12884.6,8857.1,8764.4
2975.4,3330.8,4199.6,7380.8,5493,12862.5,8866.3,8746.2
2979.1,3334.8,4189.8,7371.1,5499.9,12845.3,8871.1,8733
2983.8,3341.4,4199.3,7376.8,5495.1,12853.2,8872.4,8742.4
2984.6,3345.1,4217.1,7390.1,5484.7,12872,8869.6,8760.3
2981.4,3348,4243.9,7412.2,5469.8,12902.5,8862.5,8787.5
2975.9,3346.3,4261.7,7429.4,5454.3,12923.3,8854.2,8804.8
2976.2,3339.1,4260.7,7431.3,5443.3,12918.8,8848.8,8798.1
2976.1,3339.3,4245.6,7419.7,5446.5,12899.8,8846.4,8779.5
2976.8,3339.3,4221,7399,5457.4,12871,8848.6,8753
2980,3341.2,4200.3,7379.7,5470.9,12847.9,8854.2,8732.7
2983.6,3346.5,4196.5,7373.3,5481,12845,8859,8731.7
2985,3349.3,4209,7380.5,5480.4,12859.4,8860,8746.3
2983.2,3352.2,4232.1,7398.1,5471.1,12885.3,8855.1,8770.4
2979.2,3354.8,4254.3,7418.1,5463,12913.4,8849.3,8794.9
2972.4,3353.6,4258.8,7425.6,5471.8,12924.2,8849.8,8803.5
2965.9,3349.7,4249.6,7421.5,5478.7,12913.6,8849,8793.7
2963.8,3345.8,4231.6,7407.3,5484.2,12894.1,8849.1,8775.4
2965.4,3341.8,4205.2,7385.6,5495.1,12867.2,8853.7,8751
2968.1,3338.2,4192.6,7371.3,5502.4,12853.8,8858.1,8740.2
2970.6,3339.8,4199.5,7373.3,5501.6,12860,8860.8,8747.6
2973,3347.9,4217.8,7390.2,5493.8,12876.4,8858.7,8762.9
2973.6,3358.5,4240.8,7412.8,5480.4,12896.7,8852.3,8781.5
2972.1,3366.5,4254.8,7426.5,5460.9,12911.4,8843,8793.2
2969.6,3368.8,4249.5,7429.2,5453.6,12908.9,8837.5,8787.5
2967,3365.8,4233.7,7416.8,5458.3,12894.7,8837.5,8772.8
2972.1,3365.3,4210.2,7394.9,5464.6,12867.5,8839.5,8746.7
2996.8,3379.3,4181.5,7371.1,5455.8,12825.4,8838.5,8706.6
3012.6,3382.5,4171.4,7355.1,5458.1,12813,8844.9,8696.7
3018,3381.1,4183.2,7360.1,5461.2,12826.9,8850.3,8711.3
3017.1,3381.9,4205,7377.7,5455.8,12852.3,8851.9,8735.7
3005.8,3379.3,4233.4,7402.4,5442.1,12887.8,8848.6,8768
2984.3,3362.8,4244.7,7414.1,5463.9,12914.4,8853.2,8791.2
2969.6,3354.4,4240.7,7416,5481.9,12912.5,8855.3,8789.1
2967,3355.6,4222.6,7405.1,5488.9,12890.4,8856,8769
2971.1,3358.4,4199.4,7387.4,5496.6,12862.1,8860,8743.8
2977.2,3359.2,4183.1,7369.1,5504.6,12842.1,8865.9,8726.8
2981.5,3360.7,4189.2,7370.5,5505.2,12848.3,8869.3,8735.2
2984.9,3359.2,4204.5,7381.5,5498,12865,8869.5,8752.3
2988.6,3354.6,4228.4,7400.6,5481.6,12893.2,8867.4,8778.3
2985.7,3358.6,4245.4,7420.1,5471.2,12916.1,8862.1,8797
2982.8,3359.7,4242.9,7421.5,5471.3,12915.3,8858.9,8793.7
2981.5,3359.3,4229.7,7410.9,5477.3,12900.2,8858.7,8779.3
2982.6,3361.2,4209.4,7393.6,5489.4,12875.7,8861,8756.3
2986.7,3360.2,4187,7372.6,5502.2,12848.5,8867.7,8732.2
2991.5,3360.7,4181.7,7366.2,5507.8,12840.6,8873.1,8726.9
2994.3,3361.9,4193.2,7372.6,5507.4,12854.3,8875.6,8740.8
2993.1,3361.8,4211,7384.6,5515.7,12878.4,8880.7,8764.6
2986.3,3361.7,4236.6,7407.9,5508.9,12908.3,8877.2,8792.5
2980.4,3363.7,4250.4,7424.1,5497.6,12923.7,8869.5,8804.6
2976.8,3364.2,4242.7,7422.7,5494.7,12914.2,8864.2,8794.4
2975,3363.1,4226.5,7411.5,5498,12895.4,8862.1,8776.5
2976.1,3361.8,4203.3,7391,5507.1,12868.2,8865.6,8751.2
2980.2,3360.3,4188.8,7374.2,5515.4,12849.4,8870.9,8735.5
2983.6,3359.9,4192.3,7371.5,5514.1,12851.2,8872.1,8738.4
2984.9,3361.9,4204.7,7378.7,5499,12864.6,8866.8,8751.1
2983.6,3367,4228.5,7402,5482.5,12891.7,8859.1,8777
2978.8,3369.1,4248,7422.9,5471.3,12915.5,8851.9,8799.2
2978.4,3371.5,4251,7428.8,5462,12916.4,8843.3,8798.4
2996.8,3385.7,4229,7413.5,5445.2,12881,8833.5,8762.5
3008.4,3386,4199.9,7384.4,5452.2,12847.9,8837.2,8732
3013.8,3379.8,4175.5,7359.4,5470.2,12823.9,8847.4,8711.6
3017.8,3376.5,4168.6,7350.1,5480.7,12816.7,8857.4,8707.2
3012.5,3372.8,4185.3,7361.6,5477.6,12836.3,8862,8727
2997.2,3357.1,4207.7,7379.4,5500.7,12872.5,8870.6,8761.1
2982.3,3350.4,4239.4,7410.2,5504.9,12911.2,8868.7,8796.9
2975.5,3352.8,4253.9,7428.4,5494.1,12926.6,8860,8808.3
2973.7,3356.3,4247.3,7428.2,5489.3,12917.2,8854.7,8797.5
2973.2,3357,4230.6,7414.3,5492.9,12897.1,8853.4,8778.5
2974.9,3355.3,4206.4,7390.9,5502.8,12868.7,8856.4,8751.7
2980.5,3351.6,4189,7371.8,5510.5,12846.8,8862.5,8732.2
2991.1,3345.9,4192.8,7369.2,5507.4,12848.3,8867.6,8735.3
2994.1,3349.7,4207.8,7380.8,5501.6,12865.5,8866.9,8752
2992.1,3353.3,4230.4,7399.9,5492.3,12891.7,8862.5,8775.8
2987.5,3357.2,4253.3,7421.3,5482.1,12917.7,8855,8798
2981.8,3361.6,4256.8,7428.4,5479.4,12922.6,8848,8800.6
2977.8,3361.3,4244.9,7421.3,5482.6,12908.9,8845.6,8787.7
2978.4,3359.4,4223.2,7403.5,5491.4,12881.7,8847.2,8762.6
2983.1,3357.7,4198,7380.7,5508.8,12851.7,8854.7,8735.4
2986.6,3358,4186.5,7367.5,5533.1,12840.1,8867.6,8727.4
2985.6,3358.2,4198.6,7375.4,5536.5,12853.8,8871.3,8742.3
2983.8,3360.6,4220.2,7394.4,5525.6,12877.6,8867.5,8764.8
2979.8,3364.4,4245.4,7419.9,5509.5,12907.1,8859.4,8791.2
2973.7,3366.2,4262.7,7437.2,5495.4,12926.6,8849.3,8807.3
2968,3366.4,4256.5,7434.6,5492.1,12920.5,8844.2,8799.9
2965.4,3365,4239.3,7421.8,5495.7,12900.5,8843.6,8781.1
2966.9,3362.4,4212.6,7397.5,5503.8,12868.3,8846.4,8751.5
2972.9,3362.4,4192.2,7375.7,5504.4,12842.7,8848.6,8729.1
2979.3,3365.1,4193,7375.1,5502.6,12844.2,8851.5,8732.2
2981,3364.9,4205.1,7385.5,5499.1,12860.9,8852.3,8747.8
2983.3,3369.7,4229.5,7405.7,5483.7,12886.3,8846,8771.2
2998.8,3386,4246,7421.5,5448.4,12896.6,8830.6,8777.8
3004.3,3387.8,4241.8,7417.2,5438.7,12893.9,8825.9,8773.1
3003.2,3382.8,4229.4,7407.1,5446.5,12882.8,8828,8762.1
3002.3,3376.5,4206.9,7390.2,5457.9,12858.5,8833.8,8739.6
2997.7,3368.9,4189.1,7372.5,5466.4,12838,8841.8,8722.2
2986.7,3352,4182.1,7362.3,5503,12839.1,8857.9,8726.5
2979.2,3344.7,4197.6,7374.1,5517.9,12858.5,8864.6,8748
2977.6,3348.2,4220.4,7393.8,5508.4,12882.1,8861.6,8770.3
2976,3354.5,4247.6,7418.2,5491,12912,8853.9,8796.5
2971.3,3356.9,4262.4,7432.8,5478.5,12928.8,8844.8,8810
2965.8,3354.9,4258.7,7432,5474.4,12924.3,8837.9,8804.3
2962.9,3346.1,4243.2,7418,5474.9,12907.2,8836,8788.3
2967.6,3332,4217.2,7394.3,5478.8,12880.1,8840.1,8762.6
2971.6,3329.6,4195.7,7374.7,5488.8,12857.8,8844.8,8742.5
2974.5,3335.2,4195.5,7373.2,5492.5,12856.3,8847.6,8742.4
2976.3,3347.5,4211.7,7388.9,5487.7,12870.8,8845.6,8756.3
2975.5,3359.8,4235.3,7408.3,5480.4,12893.9,8839.9,8778
2970.6,3366.3,4258.7,7429.7,5467.9,12918.4,8831.8,8799.6
2965.4,3369.7,4263.6,7439.7,5460.7,12923.1,8824.7,8802
2963.1,3371.1,4249.2,7430.2,5467.1,12908,8824.1,8787
2962,3373.4,4222.9,7411.1,5492.9,12882.5,8834.4,8764.2
2961.3,3371.5,4196.9,7389.5,5511.5,12855.9,8843.7,8741.7
2964.9,3370.5,4186.9,7376.6,5518.1,12843.4,8850.4,8732.2
2968.4,3371.8,4197,7381.8,5514.8,12853.2,8852.9,8742.2
2967.7,3373.5,4218.6,7398.6,5504.3,12877.3,8849.6,8765.2
2963.8,3377.6,4244.5,7422,5489.8,12907.3,8843.1,8792.6
2958.4,3380.2,4260.5,7439.8,5477.1,12927,8835.2,8808.7
2953.1,3379.1,4251.6,7436.2,5472.1,12920.2,8830.4,8799.9
2952.5,3380.2,4230.4,7418.4,5467,12897.2,8827.3,8777.5
2956.3,3381.8,4204.6,7399.1,5472.9,12868.7,8830.3,8750.8
2961.4,3380.4,4183.8,7379,5484.9,12845,8837.9,8730.2
2970.4,3384.1,4182.2,7374.8,5484.6,12839.5,8841.6,8726.9
2992.7,3400.8,4189.4,7380.4,5457.7,12838.7,8834.2,8724.9
3001.6,3405.2,4206.6,7389.5,5442.7,12858.7,8831.2,8743.2
2999.8,3403.6,4227.9,7406.6,5436,12885.6,8828.6,8768
2994,3400.7,4236.1,7416.4,5431.9,12895.9,8826.5,8777.2
2982.2,3392.9,4230.5,7415.4,5430.8,12890.5,8825.6,8770.6
2965.7,3373.7,4211.2,7402,5468,12880,8837.4,8761.4
2957.9,3363.6,4193.1,7388.2,5496.3,12859.6,8848.2,8744.8
2962.2,3365.6,4184.8,7380.4,5503.3,12844.1,8853,8731.8
2967,3372.7,4194.7,7387.1,5499,12853.1,8854.2,8740.5
2968.8,3376.7,4211.3,7397.3,5490.5,12872.2,8851.5,8757.9
2965.1,3380.3,4236.7,7417.4,5476.6,12903.1,8845.4,8785.1
2960.2,3379.6,4252.4,7432.4,5462.7,12922.7,8838.1,8801.2
2961.2,3373.1,4248.6,7431.4,5453.2,12918.6,8834.5,8795.9
2961.1,3374.8,4232.5,7420.1,5456.8,12899.8,8833.7,8778.5
2962.8,3375.3,4208.6,7400.4,5467.6,12871.7,8836.9,8753.4
2966.8,3376.3,4188.5,7381.3,5480.5,12847.8,8843.1,8732.9
2970.2,3381.3,4187.3,7376.7,5488,12845,8847.1,8732.4
2972.1,3384.2,4198.4,7385.1,5487.2,12857.8,8849.1,8745.4
2971.4,3386.9,4221.1,7404.5,5478.2,12883.9,8846.3,8769.6
2968.1,3389.5,4244.7,7425.1,5469.5,12911.2,8841.3,8793.4
2961.5,3389.7,4250.4,7432.6,5476.8,12921.6,8841.5,8801.7
2954.6,3386.5,4240.8,7428.8,5482.2,12910.1,8840.2,8790.8
2953.5,3383.4,4223.3,7416.9,5487.1,12888.8,8840.4,8770.4
2956.8,3381.3,4198.9,7397.3,5496.2,12859.7,8844.7,8744
2960.8,3380.5,4186.1,7384.3,5502.3,12843.2,8848.9,8731.2
2963,3381.5,4194.2,7387.7,5500.4,12852.2,8851.7,8741.2
2963.2,3383.3,4213.6,7402.8,5490.2,12873.2,8849.3,8760.8
2960.2,3383.2,4238.7,7421.9,5472.9,12901.6,8842,8787.2
2955.8,3382.8,4253.7,7434.7,5449.8,12919,8829.9,8802.1
2951.9,3384.1,4250.6,7438.5,5440.4,12918.2,8822.9,8799.6
2949.5,3383,4236.7,7428.8,5443.7,12902.2,8820.9,8784.1
2955.7,3384.4,4211.9,7408.4,5450.2,12870.6,8822.3,8754.8
2979.6,3398.6,4181.8,7383.5,5440.6,12829.1,8821.4,8716.2
2994.6,3401.5,4170.8,7366.2,5443.3,12818.1,8828.6,8707.8
2999.2,3398.3,4181.1,7369.3,5446.3,12833.3,8834.3,8723.1
2997.5,3396.7,4202.8,7384.9,5439.9,12860.3,8835.6,8749
2984.7,3392.4,4232.4,7411,5424.8,12897.1,8831,8782.1
2963.3,3376.8,4242.9,7425,5445.9,12922.6,8835.1,8805
2950.1,3368.8,4238.5,7426.2,5464,12918.9,8837.8,8801.2
2948.9,3370.2,4221.6,7414.6,5470.5,12895.6,8838.5,8778.8
2954.1,3372.9,4199.2,7395.4,5478.4,12865.9,8842.1,8751
2960.1,3374.6,4184.3,7379.4,5485.2,12847.1,8847.3,8734.6
2963.1,3376.6,4191.1,7381.4,5482.8,12854.5,8848.9,8742.9
2965.2,3376.4,4206.5,7393,5472.9,12871.2,8848,8758.4
2969.5,3372.7,4232.3,7413.3,5453.8,12897.5,8844.2,8782.9
2966.4,3376.1,4252.3,7433.9,5438.8,12920.2,8835.8,8802.6
2962,3378.7,4250.9,7435.3,5434.7,12918.5,8830.4,8799.8
2959.5,3380.2,4238.3,7425.9,5438.7,12903,8828.3,8785.9
2959.8,3383.6,4214.5,7407.3,5451,12875,8830,8760.8
2963,3384.1,4193.3,7386.2,5462,12848,8835.1,8738
2966.3,3385.1,4190.5,7380.3,5465,12843.2,8838.7,8736.2
2969.4,3386.7,4201.9,7386.9,5463.7,12857,8840.9,8749.4
2966.8,3388.2,4221.1,7402.2,5467.6,12883.4,8844.3,8774.5
2958.4,3387.2,4248.1,7427.5,5456.4,12913.7,8838.4,8802.6
2951.1,3386,4262,7441.3,5442.2,12929.7,8829.4,8815.3
2946.2,3383.9,4254.4,7435.4,5437,12921.2,8823.5,8805.1
2943.7,3383.1,4239.4,7425.2,5437.8,12902.7,8820.2,8786.6
2944.8,3383.2,4214.9,7405.1,5445.7,12874.1,8823.5,8760.2
2949,3384.6,4198.5,7388.8,5453.4,12854.2,8829.4,8743.1
2952,3386.1,4201,7385.7,5450.5,12856.4,8831.6,8746.2
2952.9,3388.2,4214.5,7393.9,5432.4,12872,8826.6,8760.6
2951.9,3393.4,4239.3,7417.3,5413.4,12900.2,8819.1,8786.1
2947.4,3395.9,4258.7,7435.2,5400.2,12922.7,8811.1,8805.7
2947.3,3400,4258.6,7439,5390.6,12920.5,8804.2,8801.6
2965,3415,4238.3,7425.3,5370.1,12887.9,8794.6,8768
2975.6,3415.9,4209.2,7398.2,5372.6,12855.9,8797.1,8737.5
2980.6,3410.9,4185.1,7375.3,5387.4,12830.9,8806.4,8715
2984,3408.3,4178.4,7365.8,5394.9,12823.7,8815.1,8710.4
2978.6,3404.3,4196.4,7376.3,5388.1,12843.8,8818.7,8731.2
2962.5,3389.9,4219.7,7393.2,5407.2,12881.6,8827.2,8767.4
2948.3,3385.2,4250.6,7422,5409.4,12920.4,8826.5,8803.2
2941.9,3389.6,4264.9,7440.9,5396.8,12933.6,8818.9,8813.2
2940.7,3392.8,4257.8,7438.4,5391.2,12924.5,8814.4,8803.2
2939.7,3391.5,4240.6,7423.3,5392,12905.5,8813.4,8786.1
2941.4,3389.6,4216.2,7401.8,5398.5,12874.9,8815.6,8758.5
2948.3,3387.7,4199.6,7385.3,5404,12852.6,8821.9,8739.3
2959,3382.1,4203.6,7384.1,5398.3,12855.3,8827.9,8743.2
2961.1,3385,4219.4,7397.7,5388.1,12874.9,8826.9,8761.7
2958.8,3389.1,4242.2,7418.4,5374.5,12902.1,8821.8,8787.2
2954.1,3392.8,4263.2,7438.3,5361.2,12927.1,8814.5,8810
2948.8,3398.3,4265.8,7444.5,5356.4,12930.5,8808.5,8812.1
2946.3,3398.9,4252.1,7433.6,5358.4,12914.1,8807.6,8796.5
2947.3,3398,4230,7415.6,5364.4,12889.4,8810.9,8774.5
2952.4,3397.1,4205.7,7393.3,5376.6,12861.3,8818.5,8749.6
2956.8,3396.8,4195.7,7379.6,5396.4,12852,8831.8,8743.2
2955.8,3394.8,4209.8,7386.7,5394.8,12868.3,8835.8,8759.8
2953.7,3396.6,4231.8,7406.5,5379.5,12892.6,8832.1,8782.3
2949,3397.3,4258.4,7430.3,5359.4,12923.1,8824.3,8810.2
2941.3,3394.9,4275.8,7446.7,5340.6,12944.7,8814.3,8828
2932.8,3390.7,4270.6,7444.8,5331.9,12941.4,8807.8,8823.2
2927.6,3386.3,4253.3,7431.7,5330.2,12924.1,8805.5,8806.7
2927.1,3384.3,4225.6,7408.4,5333.3,12892.2,8806.2,8776.9
2933,3390.5,4205.5,7392,5329.5,12864.3,8806.7,8751.7
2941,3400.2,4207.7,7394.8,5324.2,12861.3,8808.4,8751.3
2944.5,3405.5,4221.8,7406.8,5317.2,12875.8,8808.2,8765.9
2947.2,3412.1,4245.8,7427.5,5298.9,12900.4,8801.8,8789
2961.8,3428.9,4260.1,7443.6,5261.5,12909.7,8786,8794.9
2966.4,3432.6,4256,7440.8,5249.2,12907.7,8780.1,8791.2
2965.8,3429.9,4241.1,7428.8,5256.5,12893.7,8782.4,8776.4
2965.2,3427.3,4217.7,7410.7,5267.9,12867.5,8788.7,8752
2960.4,3421.6,4199.9,7391.1,5276.4,12847.5,8796.7,8735.2
2948,3405.4,4192.2,7382.9,5312.4,12850.5,8812.3,8740.2
2940,3400.5,4207.1,7396.2,5327.2,12869.3,8819,8759.6
2938.5,3406,4228,7416,5317.7,12890.2,8815.6,8778.8
2937,3414.6,4253.8,7441.1,5300.4,12918.6,8808.2,8804.4
2932.6,3418.3,4268,7455.4,5286.8,12935.4,8800.2,8817.9
2928.3,3418.1,4259.5,7451.5,5285.1,12926.7,8796.1,8807.9
2928.1,3413.7,4241.9,7436.8,5288.3,12906.5,8796.8,8788.4
2934.9,3403.4,4219.2,7415.6,5291,12878.8,8801.1,8763
2940.6,3403.7,4199,7398.2,5300.4,12855.3,8807.2,8742.2
2945.2,3406.4,4198.3,7394.4,5304.2,12853.9,8812.4,8742.6
2946.5,3411.3,4214.4,7405.9,5299.4,12872.1,8812.4,8759.6
2944.2,3417.8,4239.9,7427.4,5290.3,12901.4,8807,8785.6
2940,3419.7,4261.3,7446,5277.8,12925.8,8799.9,8806.3
2935.3,3420.1,4267,7453.3,5269.3,12931.6,8793.6,8809.7
2932.5,3420.4,4252.9,7444.1,5274.2,12917.1,8793.3,8795.5
2931.1,3418.5,4226.3,7422.7,5298.5,12892.3,8802.9,8772.6
2931.8,3416.2,4203.2,7403.1,5315.2,12865.7,8811.2,8749
2935.7,3417.7,4194.5,7392.5,5321.2,12853.2,8816.7,8738.9
2938.9,3420.8,4205.4,7398.2,5317.5,12864.2,8818.1,8750.4
2938.1,3424,4224.9,7413.3,5307,12886.1,8814.7,8771.1
2933.7,3428.6,4251.4,7434.9,5292.3,12916.6,8808.4,8799.8
2928.2,3431.9,4266.5,7450.4,5280.2,12935.8,8801.2,8816
2923.5,3431.7,4256.9,7445.1,5277.1,12926,8796.2,8805.4
2922.9,3431.9,4234.3,7427.7,5274,12900.4,8793,8781.3
2926.9,3432.1,4207.3,7409,5281.6,12870.3,8796.6,8753.9
2933.1,3430,4187.8,7389.6,5294.4,12846,8804,8733.3
2943.6,3433.9,4189.3,7385.9,5294.6,12841.9,8807.3,8731
2966.2,3449.5,4196.2,7391.1,5269.4,12841.9,8800.9,8729.3
2974.7,3452.6,4215.1,7401.4,5254.5,12863.6,8797.4,8748.7
2972.5,3448.6,4237.9,7419.9,5247,12892.7,8794.2,8774.8
2965.6,3442.4,4244.5,7428,5242,12901,8790.8,8781.9
2954.3,3435.2,4237.6,7425.4,5241.5,12893,8790.2,8774.6
2938.5,3415.7,4220.7,7410.7,5278.3,12881.4,8801.3,8765.6
2931.5,3405,4202.4,7395.1,5306.8,12861.1,8811.8,8749.2
2935.4,3405.9,4193.3,7386.5,5313.7,12847.4,8816.9,8738.2
2941.1,3409.9,4203.9,7393.6,5308,12857.1,8817.8,8748.1
2942,3412.3,4221.1,7407.9,5297.9,12877.5,8815.2,8767
2938.3,3415,4245.5,7430.8,5283.6,12906.6,8809,8793
2934.8,3414.4,4261.2,7444.5,5270,12926.6,8802.5,8809.4
2936.8,3406.2,4257.1,7440.3,5261.6,12921.3,8799.6,8802.6
2936,3407.5,4240.8,7430.2,5265.1,12902.7,8798.5,8784.2
2936.9,3408.5,4213.4,7408.5,5277.4,12873.5,8802.8,8756.9
2941.4,3409.7,4193.1,7388.5,5290.7,12850.8,8809.8,8737.3
2944.9,3416.2,4192,7384,5298.8,12848.1,8814.2,8737.2
2947,3420.8,4205.3,7392.2,5297.2,12862.9,8815.9,8752
2946.5,3424.4,4225.5,7408.5,5288.8,12887,8813.7,8773.9
2943.1,3427.2,4247.8,7428.4,5280.6,12915.2,8809.7,8798.5
2937.3,3427.5,4251.7,7435,5288.5,12924,8811,8806.1
2931.8,3425.5,4240.5,7429,5295.7,12911.3,8811.4,8794.2
2931.2,3426.1,4221.5,7416,5301.8,12889,8813.4,8772.6
2934.7,3426.8,4196.3,7395,5312.7,12859.9,8818.8,8745
2940.8,3427.6,4183.9,7379.2,5321.2,12844.4,8825.7,8732.4
2945.2,3430.9,4191.5,7382.2,5321,12851.6,8830.5,8742
2946.5,3435.1,4207.5,7396,5313.8,12870.3,8830.7,8761.3
2944.2,3438.1,4229.7,7413,5299.7,12897.1,8826.1,8785.8
2941.1,3441,4243.2,7425.3,5279.2,12914.3,8817,8799.9
2940,3443.5,4237.6,7426.3,5273.2,12909.1,8812.9,8793.6
2940.1,3442.5,4221.6,7414.5,5278.9,12890.5,8814.4,8776.4
2947.5,3444,4196.8,7394.7,5286.3,12858.4,8817.6,8746.7
2973.7,3457.1,4170.4,7371.3,5275.9,12816.7,8816.9,8707.5
2989.1,3459,4163.1,7357.1,5274.9,12806.4,8822.6,8700.3
2994,3456.6,4175.1,7363,5275.8,12823.8,8828.2,8718.5
2993.1,3455.7,4198.1,7380.5,5268.6,12850.8,8829.7,8744.6
2981.8,3452,4228.4,7406.1,5252.3,12884.6,8825.4,8776.3
2960.7,3435.2,4239.2,7417.8,5273.6,12909.6,8829.4,8799
2946.3,3425.8,4234.4,7419.7,5290.3,12907.6,8831.9,8797.4
2945.7,3425.8,4216.9,7409,5295.9,12884.9,8833,8776.9
2951.7,3427.3,4193.8,7390,5304,12855.2,8837.4,8750.1
2956.9,3428,4181.4,7377.4,5308.8,12838.6,8841.3,8735.9
2959.4,3429.3,4189.8,7381,5305.1,12845.9,8842.1,8745.3
2961.5,3427.1,4207.4,7393.1,5295.5,12864.9,8840.9,8763.7
2964.8,3421.1,4232.6,7413.7,5276.8,12893.1,8836.5,8790.3
2961.5,3424.5,4249.3,7432.9,5264.6,12914.7,8829.5,8808.5
2957.5,3425.5,4246.1,7433.7,5263,12912.2,8825.5,8804.3
2956,3427,4232.7,7423.1,5268.7,12895.8,8825,8789
2956.5,3431,4210.4,7405.9,5280.6,12870.6,8827.5,8765.5
2960.1,3430.6,4187.9,7384.5,5293.1,12844.7,8834.3,8742.3
2963.9,3430.4,4183.4,7376.4,5298,12839.8,8839.7,8739.1
2966,3431.5,4195.5,7383.2,5298.1,12855.8,8842.9,8754.2
2964.4,3432.1,4215.1,7397.3,5304.7,12881.1,8847.3,8777.6
2957.3,3431,4240.8,7421,5296.3,12910.8,8842.4,8803.6
2950.5,3430.2,4252.8,7435,5284.1,12925.4,8834,8814.5
2945.9,3429.4,4245,7433.2,5280.9,12916.9,8828.6,8804.5
2943.1,3427.3,4230.1,7423.4,5283.1,12898,8825.9,8786.3
2944.5,3425.8,4203.9,7399.3,5293.3,12867.2,8829.8,8758.3
2949,3425.5,4189.6,7381.9,5301.4,12849,8835,8743.3
2951.8,3425.4,4193.9,7380.7,5299,12852.2,8836.4,8748.8
2953.4,3427.2,4207.2,7390.1,5282.3,12867.6,8831.5,8764
2953.4,3430.8,4231.6,7411.5,5266.2,12896.7,8824.9,8790.4
2948.2,3432.7,4248.9,7429.8,5254.4,12918.8,8817.1,8809.6
2947.8,3436.4,4248.1,7433.3,5246.2,12916.4,8809.9,8805.8
2966.8,3451.4,4227.1,7418.6,5229.1,12882.2,8801.3,8771.4
2977.9,3452.4,4198.4,7390.8,5234.3,12850.1,8804.9,8741.8
2983.6,3446.3,4175.6,7364.8,5252.2,12826.7,8815.4,8721.8
2987.2,3443.8,4170.8,7356.4,5261,12821,8823.8,8720
2981.4,3440.5,4186.4,7368.4,5256.6,12838.9,8827.3,8738.6
2965.2,3426.7,4208.5,7387.2,5278,12875,8835.8,8773
2951,3421,4238.9,7415.7,5281.8,12913.6,8835.5,8809.1
2944.6,3422.6,4252.2,7433.1,5271.2,12927.2,8828.2,8819.9
2943.8,3425.7,4244,7431,5268.8,12915.6,8824,8807.1
2945.2,3426.5,4226.3,7416.7,5273.7,12894.1,8824.6,8786.9
2948.7,3426.3,4201.2,7394.1,5284.9,12864.7,8829.6,8759.9
2955.6,3422.7,4184.3,7376.1,5293.6,12843,8836.9,8740.5
2966.5,3416.4,4186.9,7374.4,5291,12844.9,8843.6,8743.8
2970.3,3420.1,4201.5,7387.4,5285.4,12861.6,8843.8,8759.9
2969.1,3424.4,4226.5,7407.3,5275.1,12889.8,8839.7,8786.2
2963.7,3428.5,4247.5,7427.9,5263.3,12915.4,8831.8,8808.4
2956.2,3432.4,4249.8,7434.6,5258.7,12920.7,8824.5,8811.4
2952.2,3430.4,4236.4,7423.3,5261.1,12905,8822.1,8797
2952.6,3428.3,4213,7404.1,5269.8,12878,8823.8,8771.8
2956.9,3428.1,4189,7383.7,5285.6,12849.8,8831,8744.9
2960.7,3428.9,4179.6,7372.4,5308.2,12841.4,8843.3,8739.1
2959.7,3429.4,4192,7380.8,5310.5,12855.7,8846.9,8754.1
2958.3,3431.7,4213.1,7398.5,5300,12878.8,8844.1,8775.1
2955.1,3434.4,4240.7,7421.2,5284.3,12909.4,8836.9,8802.6
2948.4,3436.3,4257.6,7437.7,5270.5,12927.7,8827.5,8817.3
2943.5,3436.7,4251.1,7436.3,5267.6,12918.3,8822.7,8806.9
2942.3,3436.2,4233.5,7423.8,5272,12897.7,8822.4,8787.1
2944.2,3433.3,4206.4,7400.3,5280.8,12866.6,8825.8,8758
2949.9,3431.6,4186.6,7378.9,5280.8,12842.3,8828.1,8736.2
2956.4,3435.2,4188.1,7379.2,5279.1,12844,8831,8739.9
2958.1,3437.5,4203.3,7390.1,5274.2,12861.4,8831.3,8757.1
2960.4,3442.1,4229.9,7411.5,5257.1,12888.7,8824.4,8782.1
2975.4,3458.1,4244.5,7428.2,5221.9,12897.7,8808.1,8786.6
2980.4,3459.1,4239.8,7423,5212,12895.3,8802.7,8782.2
2980.3,3453.2,4224.3,7410.5,5220.8,12880.7,8805.5,8768.7
2980.2,3447.1,4203,7391,5232,12856.9,8811.7,8747
2975.6,3438.8,4185.4,7371.6,5241.9,12837.4,8820,8730.1
2964,3421.3,4179.3,7363.2,5278.9,12840.2,8836.4,8736.2
2957.1,3415,4196.6,7376.8,5294.5,12860.2,8843.7,8758.1
2955.5,3418.6,4220,7398.3,5284.9,12883.6,8840,8780.4
2953.6,3424.5,4247.2,7425.3,5266.6,12911.9,8830.9,8805.9
2948.7,3427.1,4260.6,7439.3,5253.6,12926.5,8821.7,8817.5
2943.3,3426.1,4254.6,7436.2,5250.4,12920.5,8816.1,8810.1
2942.2,3421.5,4236.7,7421.5,5252.6,12899.4,8815.3,8789.6
2950.7,3411.7,4210.9,7399,5257.8,12869.5,8820.7,8761.3
2957.3,3412.7,4192.3,7384,5267.5,12849,8826.7,8743.3
2960.8,3415.1,4192.4,7380.6,5271.8,12849.5,8830.8,8745.5
2962.2,3419.2,4206.9,7390.6,5268.7,12866.5,8830.9,8762.2
2959.9,3425.9,4231.6,7411.3,5260.2,12893.5,8825.8,8787
2953.7,3427.6,4253.5,7430.1,5247.6,12919.4,8818.5,8809.8
2948.1,3426.9,4258.1,7437.6,5240.3,12926.5,8811.5,8813.7
2944.9,3424.4,4244.5,7427.7,5245.4,12911.8,8809.9,8798.9
2943.6,3420.5,4221.1,7408,5268.4,12887.9,8818,8777.3
2943.6,3417.5,4198.1,7390,5285.4,12861,8825.8,8753.9
2946.9,3417.4,4189.1,7380.9,5290.9,12849.1,8830.9,8744.6
2948.8,3418.7,4198.8,7386.9,5287.4,12861.3,8832.5,8757.3
2946.3,3419,4219.3,7402.3,5276.3,12887.3,8828.8,8781.7
2939.9,3418.6,4244.2,7423.2,5260.5,12918.7,8821.6,8810
2932.4,3417.6,4261.4,7441,5245.8,12939.9,8811.8,8827.8
2926.6,3414.9,4252.9,7438.4,5240.5,12931.6,8804.8,8817.6
2928.8,3416.7,4233,7422.9,5237.4,12904.8,8801.2,8791
2937.2,3422.7,4206.7,7404.9,5246.7,12869.6,8805.2,8758.5
2945.7,3425,4185.5,7385.6,5261.6,12841.6,8813.6,8734.5
2955.2,3428.2,4184.8,7380.5,5263,12839.7,8818.3,8734
2977.1,3444,4190.1,7385.6,5238.9,12841,8812.5,8734.1
2985.2,3446.8,4206.4,7395.4,5225.7,12864.1,8810.2,8755.6
2982.3,3442.1,4227.8,7411.8,5218.6,12893.8,8807.5,8782.5
2977.1,3438.3,4233.2,7418.9,5215.2,12900.1,8804.7,8787.1
2967.9,3431.3,4227.4,7414.5,5216.5,12891.9,8805.1,8778.9
2952.9,3412.9,4208.2,7399.6,5255.8,12880.2,8818,8769.1
2946.4,3403.7,4188.1,7385.6,5287.1,12859.2,8830.4,8751.8
2950.4,3404.7,4179.3,7378.5,5294.8,12846.3,8836.3,8741.7
2955.8,3408.6,4190.8,7386.3,5290.2,12857,8837.7,8752.7
2958.8,3411.4,4210.1,7395.3,5282.1,12876.8,8836.6,8771.8
2956.9,3415.3,4235.9,7416.5,5269,12906.5,8831.5,8799
2953.4,3414.8,4250.2,7432.6,5256.6,12924.9,8825.6,8814.5
2955.6,3407,4243.5,7429.4,5249.2,12917.7,8823.6,8806.6
2956.1,3408.7,4224.9,7418,5254.5,12897.2,8824.1,8787.5
2958.7,3409.2,4197.7,7396.5,5268.5,12866.8,8829.7,8759.6
2963.5,3410.1,4178.5,7377.7,5281.6,12844.9,8837.2,8740.9
2966.2,3415.4,4179.4,7374,5287.5,12845.1,8841.2,8744.4
2967.5,3418.3,4194.1,7383.8,5283.3,12860.6,8841.3,8760.2
2966.7,3420.9,4216.8,7402.6,5272.4,12886.2,8838,8784.3
2962.8,3422.2,4238.7,7421.9,5262.3,12913.3,8833.1,8808
2955.7,3419.8,4244.1,7428.6,5269.4,12924.1,8833.3,8815.9
2948.9,3417.2,4234.4,7423.1,5276,12913.3,8832.6,8804.5
2947.7,3416.4,4215.7,7408.9,5282.1,12890.6,8833.9,8782.5
2951.5,3416.7,4192.4,7388.7,5291.9,12860.1,8838.4,8754.8
2956,3416.8,4184.2,7377.4,5296.6,12847.3,8841.8,8743.7
2958.1,3417.8,4194.5,7382,5293.3,12857.8,8842.7,8753.8
2957.1,3419.1,4212.3,7396.4,5283.2,12877.8,8839.7,8772.9
2951.7,3419.1,4235.5,7415.1,5265.2,12905.8,8831.6,8798.2
2946.1,3421,4249.2,7428.7,5242.2,12923.5,8819.5,8811.9
2943.4,3424.1,4244.9,7431.5,5233.8,12920.2,8812,8806.3
2942.2,3424.5,4228.9,7421,5238.3,12901.2,8811,8787.9
2948.1,3426.5,4204.3,7401,5244.7,12869.4,8812.5,8757.9
2972.6,3441.7,4176.7,7376.9,5233.9,12827.2,8810.3,8717.7
2987,3444.4,4169.9,7361.8,5233.7,12818.2,8815.4,8711.4
2991,3441.3,4182.4,7368.2,5235.4,12835.3,8819.7,8728.5
2988.5,3439.1,4204.8,7386.1,5228.6,12862.1,8819.5,8753.1
2976.1,3435.6,4235.2,7413.6,5213.3,12897.9,8814.3,8785.3
2954.2,3419.2,4243.9,7425.9,5235.2,12920.6,8818.2,8805.3
2938.7,3409.3,4237.5,7425.6,5253.2,12919.2,8820.8,8803.7
2934.7,3406.8,4218.9,7411.1,5259.9,12899.7,8821.3,8785.9
2937.3,3405.4,4194.2,7389.5,5268.9,12872.5,8824.8,8760.9
2942,3404.8,4181.8,7375.9,5275.9,12857,8828.9,8748.9
2947.8,3408.9,4190.9,7380.2,5276,12860.8,8830.2,8753.2
2953.5,3412.1,4207.7,7393.4,5268.3,12872.6,8829.6,8764.5
2960,3409.9,4233.6,7414.6,5250.5,12898.3,8826.4,8787.1
2959,3414.4,4251.3,7433.1,5239,12919,8820.1,8804.2
2955.7,3414.9,4248.6,7433.9,5236.4,12916.5,8815.9,8800.3
2954.9,3414.4,4234.5,7422.7,5240.9,12899.4,8815.4,8784.3
2956,3415.6,4211,7403.3,5253,12873,8819,8760.3
2959.3,3412.4,4190.8,7383.7,5264.1,12849.6,8824.9,8741
2962.8,3410,4188.1,7376.3,5267.5,12846.8,8829.1,8740.3
2964.2,3409.4,4199.5,7382.6,5267.1,12862.6,8831.2,8755.5
2961.6,3410.1,4218.2,7399.3,5273,12887.6,8834.8,8779.4
2956.3,3412.8,4244.6,7420.5,5265.7,12915.9,8830.7,8805.6
2951.8,3415,4256.5,7432.9,5255.2,12927.2,8823.8,8813.6
2947.8,3414.2,4247.7,7429.4,5251.9,12915.4,8819,8801.3
2944.8,3410.4,4229.9,7415.9,5255.3,12896.7,8817.6,8783.3
2945.7,3406,4205.2,7394,5264.5,12870.1,8821.4,8758.4
2951.5,3406.1,4192,7379.8,5272.6,12850.4,8826.9,8742
2955.5,3406.3,4197.2,7379.3,5269.9,12852.9,8828.3,8746.3
2956.7,3407.7,4211.3,7387.9,5253.3,12869.6,8824.1,8761.8
2955.9,3411.8,4235,7409.8,5236.7,12897.8,8817.8,8787.3
2951.3,3412.6,4252.3,7427.4,5225.3,12919.7,8810.9,8806.6
2951.7,3415.4,4250.8,7430.7,5217.4,12915.7,8803.9,8800.9
2971.5,3429.9,4230.2,7416.4,5199.3,12882.9,8796.1,8767.3
2984.1,3429.9,4200.5,7387,5204.3,12849.4,8800.3,8736.4
2989.7,3423.3,4175.6,7361.9,5220.5,12824.7,8810.8,8715.5
2992.9,3419.4,4170.9,7353.1,5228.2,12820.3,8819.6,8713.5
2988,3415.6,4189.8,7365.9,5222.5,12841.7,8822.5,8734.5
2971.9,3399.8,4214.6,7385.7,5242.3,12880.4,8829.7,8772.3
2958.2,3392.6,4243,7413.2,5247.9,12914.6,8829.4,8804.4
2951.8,3394.7,4256.9,7431.6,5237.3,12928.1,8821.7,8814.6
2949.4,3396.8,4249.3,7430.6,5232.6,12918.6,8816.2,8803.4
2949,3393.8,4231.8,7415.9,5235.7,12897.2,8815,8783.1
2950.9,3390.5,4207.7,7394.6,5245.3,12868.7,8818.4,8757.2
2957.4,3385.7,4191.5,7377.2,5253.9,12848.4,8825.2,8739.8
2968.2,3378.1,4197.1,7376.4,5249.7,12852.6,8831.1,8745.2
2971,3380,4212.3,7389,5242.2,12871.1,8830.3,8762.7
2968,3384,4236.6,7408.9,5231.4,12899.2,8825.6,8789.1
2962.3,3388.9,4256.5,7428.6,5221.1,12923.7,8818.7,8810.8
2956.6,3393.1,4256.1,7432.6,5219.2,12926.1,8813.5,8811
2953.8,3391.8,4242.6,7421.4,5223,12911.2,8812.1,8796.2
2954.3,3389.2,4218,7400.9,5233.1,12885.1,8815,8771
2958.7,3387.8,4193.3,7377.8,5250.3,12858.7,8823.5,8747.9
2962.3,3386.8,4184,7365.1,5274.5,12851.5,8836.8,8743.8
2961.2,3386,4197.1,7373.6,5277.6,12865.1,8840.2,8758.9
2959.7,3388.1,4219.3,7391.9,5266.7,12888.2,8836.7,8780.4
2955.1,3390.2,4246,7416.3,5250.1,12918.8,8828.5,8807
2948.5,3391.3,4260.8,7433.5,5237.2,12935.2,8818.4,8820.1
2943.7,3390,4252.3,7431,5235,12925.5,8813.4,8809.4
2942.6,3388.3,4234.1,7419.2,5239.4,12904.4,8812.9,8789.7
2944.3,3385.8,4206.6,7393.9,5246.8,12872.8,8816.1,8760.6
2949.2,3385.8,4185.4,7369.4,5245.7,12849.2,8818.6,8739.4
2955.6,3391,4189.1,7372.8,5242.1,12851.9,8820.5,8744.4
2957.4,3393.7,4204.5,7384.8,5236.4,12868.6,8819.9,8760.6
2959.7,3398.8,4230.8,7406.8,5219.2,12895.7,8811.9,8784
2975.2,3414.4,4243.1,7421.8,5186,12901.9,8796.8,8785.8
2980,3415.4,4239,7417.9,5177.1,12900.3,8791.9,8782.2
2980.4,3410.5,4225,7404.4,5186,12886.6,8794.4,8769.1
2980.3,3405.8,4201.4,7384.5,5197.9,12860.8,8800.4,8745.6
2975.2,3399.4,4182.4,7366.7,5207.2,12839.4,8808.3,8727.4
2964,3382.9,4177.6,7358,5244.2,12842.6,8824.7,8733.4
2955.9,3376.1,4195.5,7372.1,5259.5,12865.1,8831.9,8756.3
2954,3379.3,4217.8,7391.1,5250.7,12887.9,8828.7,8777.2
2952,3386.5,4244.8,7415,5233.6,12916.6,8820.2,8802.3
2947.6,3391,4258.7,7430.3,5220.3,12930.8,8810.7,8812.8
2943.4,3391.8,4251.7,7428,5217.6,12921.6,8805.6,8802.8
2944,3387.5,4234.6,7413.7,5220.5,12899.4,8805,8782.4
2953,3377.5,4210.5,7390.8,5225.9,12868.9,8810.3,8754.3
2959.2,3377.3,4191.6,7373.1,5235.7,12846.8,8816.8,8734.4
2963.6,3380.2,4192.8,7370.5,5239,12847.5,8821.3,8736.8
2964.4,3385,4208.4,7383.3,5235,12866.1,8820.7,8755.4
2961.3,3391.9,4234.4,7405.5,5225.8,12895.5,8814.7,8783.3
2956.1,3394.4,4254.9,7425.1,5214,12919.3,8806.8,8804.9
2950.8,3395,4255.7,7431.4,5208.2,12921.7,8801.1,8806.1
2947.7,3395,4241.4,7421.2,5214.1,12907.3,8801.4,8792
2946.2,3393.7,4216.2,7400.2,5238.5,12883.5,8810.4,8770.2
2946.7,3392.1,4191.6,7377.9,5257.9,12855.7,8819.5,8745.9
2951.2,3393.6,4183.4,7367.6,5265,12843.8,8825.7,8737
2954.8,3395.3,4194.4,7373.8,5261.7,12855.4,8827.4,8749.6
2954.3,3397.6,4216.9,7391,5252.2,12880,8824.4,8773.2
2950.2,3399.6,4243.1,7413.9,5238.1,12910.7,8818.2,8801.1
2944.7,3399.7,4257.1,7429.2,5226.8,12928.7,8810.9,8816.1
2940.6,3398.2,4247,7424.8,5223.8,12916.7,8806,8803
2941.2,3398.1,4225.9,7405.3,5220.6,12892,8804.1,8779.7
2946.9,3398.6,4198.8,7384.4,5228.3,12862.1,8808.6,8752.3
2953.4,3397.3,4178.9,7367,5240.7,12837.6,8816.2,8731.1
2963.8,3400.5,4181.5,7365.2,5240.7,12836,8820,8731.3
2987,3416.5,4188.6,7369.7,5215.3,12835.4,8813.8,8729.8
2996.4,3420.7,4207.1,7380.3,5199.6,12857.4,8811.4,8750.5
2994.1,3418.2,4227.9,7397.5,5190.8,12885,8809.1,8774.7
2988,3414.2,4233.2,7405.3,5184.9,12892.6,8806.3,8779.7
2977.3,3407.8,4227.7,7403.1,5182.8,12886,8805.5,8772.9
2961.3,3388.8,4210.5,7385.4,5218.8,12876.1,8816.9,8764.5
2954.2,3379.9,4192.2,7370.9,5248.2,12855.1,8827.7,8747.2
2958.3,3382.7,4185,7364.8,5255.2,12842.6,8832.9,8737.7
2963.2,3388.4,4194.4,7372.3,5250.9,12851.6,8833.6,8747.5
2964.7,3392.2,4212.6,7386.1,5241.7,12872.1,8830.9,8766.4
2961.2,3395.6,4238.4,7408,5228,12902.9,8824.5,8793.4
2956.4,3394.3,4252.7,7422.8,5215.7,12921.4,8817.7,8807.7
2959,3386.8,4246.5,7420.6,5209.5,12913.1,8815.7,8798.7
2960.1,3388.4,4229.6,7409.7,5214.8,12893,8816.3,8780.4
2962.6,3388.5,4202.7,7387.3,5227.7,12861.8,8821.3,8752.3
2968.1,3390,4184.5,7367.8,5240.7,12839.3,8828.5,8733.2
2971.5,3394.9,4186.1,7365.9,5246.5,12840.4,8832.4,8736.1
2972,3396.4,4200.8,7376.4,5241.5,12856.5,8832.2,8751.9
2970.2,3398.1,4223.4,7395.2,5230.7,12883.3,8828.5,8776
2965.3,3399.6,4247.1,7415.7,5219.1,12911.6,8822.4,8800.9
2958.2,3397.7,4250.9,7421.4,5226.5,12920.4,8822.2,8807.6
2952.2,3394.1,4240.6,7416.1,5233.9,12908.3,8822.6,8796.2
2950.1,3391.8,4222.6,7402.8,5238.8,12887.3,8823.1,8775.8
2952.1,3390,4198.2,7382,5248.7,12858.4,8827,8749.1
2955.8,3389.3,4187.6,7368.9,5255.5,12845.2,8831.6,8738.1
2958.2,3391,4198.1,7373.6,5253.7,12856.9,8834.3,8750.4
2958.5,3393.6,4216.1,7388,5246.1,12878,8833.1,8770.2
2955.2,3394.4,4239.1,7405.8,5231.6,12904.4,8826.5,8794.9
2950.6,3395.1,4250.1,7416.8,5211.1,12918.6,8816.5,8806.4
2947.9,3396.1,4244.5,7418.3,5203.9,12915,8811.3,8801.3
2945.7,3391.9,4227.7,7405.9,5209.7,12897.9,8811.6,8784.6
2950.5,3389.7,4203.4,7386.5,5216.4,12869,8813.6,8757.9
2974.6,3401.4,4176.3,7363.8,5206.7,12828.6,8812.4,8720.2
2991,3404.3,4169.2,7349.5,5207.8,12817.2,8818.2,8711.7
2998.8,3405,4184.9,7357.9,5209.4,12832.1,8822.8,8726.6
3000.5,3407.4,4207.8,7376.2,5202.9,12854.4,8823.5,8748.2
2990.1,3405.7,4238,7401.2,5186.6,12887.4,8819.3,8778.9
2969.4,3387.9,4246.9,7411,5207.6,12909.4,8824,8799
2954.7,3376.5,4243.5,7411.5,5224.8,12908,8826.1,8797.9
2952.2,3374.4,4226.6,7400,5230.2,12887.1,8826.1,8777.6
2956.2,3374.4,4205.2,7381.4,5236.9,12860.7,8828.7,8753.3
2962.3,3373.5,4192.3,7367,5244.8,12842.8,8832.8,8737.5
2966.7,3374.3,4201.5,7370.2,5244.1,12850.3,8834.2,8746
2969,3372.8,4219.1,7383.1,5235.1,12868.3,8832.4,8762.6
2973,3368.7,4244.8,7403.6,5217.6,12896.4,8828.5,8787.6
2969.3,3371.2,4260.5,7420.5,5206,12916.6,8821,8804.4
2964,3371,4255.6,7420.6,5204.6,12914.2,8816.4,8800.1
