EEG1,EEG2,EEG3,EEG4,EEG5,EEG6,EEG7,EEG8
0,0,0,0,0,0,0,0
-18999.9,-15927,-18201.9,-26828.8,-12783.9,-8507.8,93750,-14294.8
-19000.4,-15926.7,-18207,-26833.9,-12780.4,-8510.7,93750,-14296.9
-19004.6,-15927.7,-18208.6,-26842.8,-12782.1,-8516.6,93750,-14303.4
-19010.4,-15927.8,-18208.7,-26851.4,-12782.9,-8517.9,93750,-14306.3
-19014.4,-15928.1,-18212.6,-26859.9,-12785.4,-8523.4,93750,-14311.8
-19015.8,-15924.8,-18217.6,-26862.8,-12798.3,-8536.4,93750,-14326.3
-19018.9,-15923.3,-18219.8,-26864.1,-12808.5,-8540.8,93750,-14331.2
-19022.1,-15925.9,-18214.5,-26865.8,-12808.3,-8540.1,93750,-14329.3
-19030.4,-15925.5,-18215,-26866.7,-12801.1,-8539.2,93750,-14323.7
-19044.9,-15917.6,-18217.3,-26864.1,-12781.9,-8534,93750,-14311
-19040.9,-15921.4,-18215.4,-26862.3,-12781.2,-8532.4,93750,-14312
-19036.1,-15925.6,-18217.6,-26862.7,-12786.3,-8531.8,93750,-14314.6
-19033.7,-15928.5,-18215.9,-26862.3,-12790.6,-8530.5,93750,-14315.6
-19033.1,-15927.6,-18209.1,-26860.2,-12796.4,-8530.4,93750,-14317.1
-19032.6,-15928.2,-18208,-26860.6,-12798.3,-8529.9,93750,-14316.9
-19029.1,-15930.8,-18207,-26861.2,-12796.5,-8527.5,93750,-14314.3
-19028.7,-15939.8,-18214.2,-26860.5,-12794,-8524,93750,-14309.4
-19029.8,-15957.4,-18220.8,-26854.4,-12792.9,-8517.9,93750,-14301.1
-19031.3,-15956.1,-18216.8,-26855.1,-12793.5,-8523.9,93750,-14306
-19032.3,-15955.4,-18217.5,-26857.6,-12794.6,-8528.2,93750,-14311.6
-19035.4,-15950,-18218.9,-26855.3,-12798.2,-8530.7,93750,-14317.6
-19044.5,-15928.7,-18229.1,-26852.5,-12815.9,-8540.4,93750,-14328.9
-19044.5,-15924.5,-18233,-26860.5,-12819.5,-8539.8,93750,-14329.3
-19041.3,-15929.1,-18230.7,-26867.5,-12812.6,-8535.8,93750,-14324.9
-19037.2,-15938.8,-18227.3,-26873.5,-12804.3,-8531.6,93750,-14320.7
-19027.5,-15964.3,-18218,-26879.1,-12782.7,-8518.7,93750,-14308.3
-19020,-15979.3,-18208.7,-26879.8,-12764.6,-8514.3,93750,-14300.9
-19013.5,-15987.8,-18203.2,-26876,-12756.3,-8513.7,93750,-14299.2
-19011.4,-15986.2,-18193.5,-26871.1,-12761.3,-8519.7,93750,-14303.7
-19009.3,-15984.2,-18184.4,-26872.6,-12767.2,-8521.4,93750,-14306.3
-19009.5,-15982.2,-18181.2,-26868.8,-12771,-8520.4,93750,-14305.9
-19012.2,-15978.9,-18182.2,-26861.9,-12774.5,-8519.3,93750,-14304.4
-19013.4,-15977.3,-18182.7,-26858.5,-12776.7,-8518.9,93750,-14302.4
-19007.3,-15980.9,-18180.2,-26858.8,-12777.9,-8516.7,93750,-14300.2
-19007.6,-15980.6,-18182.4,-26858.4,-12776.6,-8517,93750,-14301
-19013.4,-15978.6,-18184.2,-26856.1,-12776.1,-8517.8,93750,-14301.4
-19016.4,-15977.8,-18181.9,-26853.6,-12778.8,-8521.7,93750,-14305.4
-19017.3,-15970.5,-18185,-26848,-12790.8,-8532.5,93750,-14318.3
-19019.8,-15966.3,-18190.8,-26847,-12800.5,-8535.5,93750,-14322.3
-19020.2,-15966.7,-18197,-26847.5,-12800.2,-8534.3,93750,-14319.8
-19022.7,-15963.5,-18201.9,-26848.4,-12793.4,-8529.9,93750,-14312.6
-19032.1,-15952.3,-18207.7,-26848.9,-12774.7,-8521.9,93750,-14298.3
-19027.8,-15953.1,-18200.7,-26853.1,-12770.3,-8517.8,93750,-14295.7
-19022.7,-15955.2,-18201.5,-26857.1,-12772.2,-8516.2,93750,-14296.5
-19021,-15955.1,-18206.1,-26857.5,-12774.7,-8514.7,93750,-14296.9
-19022.6,-15951.6,-18210,-26856.9,-12781.5,-8518,93750,-14301.4
-19025.4,-15950.4,-18207.5,-26856.7,-12784.8,-8519.3,93750,-14303.4
-19027.2,-15951.6,-18202.5,-26857.1,-12785.2,-8519,93750,-14303.5
-19028.1,-15957.5,-18200.9,-26857.2,-12786.3,-8518,93750,-14302.2
-19028.6,-15966.5,-18199.5,-26851.3,-12791.1,-8515.3,93750,-14298.7
-19028.9,-15963.3,-18196,-26851.9,-12790.6,-8518.1,93750,-14300.6
-19029,-15962.6,-18194.8,-26855.3,-12788.3,-8520.8,93750,-14302.8
-19031.2,-15959.1,-18192.1,-26855.4,-12790.3,-8524.5,93750,-14306.5
-19042.5,-15940.4,-18198.7,-26851.9,-12809,-8538.6,93750,-14320
-19046.3,-15938,-18204.9,-26856.2,-12816.7,-8542.5,93750,-14325.1
-19044.5,-15941.6,-18200.8,-26867.7,-12813.7,-8540.9,93750,-14324.5
-19038,-15948.3,-18194.7,-26881.6,-12807.4,-8536.4,93750,-14321.4
-19027.1,-15968.2,-18190.7,-26879.4,-12787.1,-8523.9,93750,-14310.9
-19020.1,-15981.7,-18186.2,-26871.8,-12768.3,-8517.1,93750,-14302.2
-19016.2,-15991,-18174.4,-26869,-12759.1,-8513.1,93750,-14297.5
-19016.1,-15990.7,-18171.1,-26864.2,-12761.3,-8513.5,93750,-14297.5
-19015,-15989.1,-18171.7,-26858.3,-12764.4,-8515.8,93750,-14299.8
-19013,-15987.9,-18175.5,-26853.8,-12767.9,-8517.8,93750,-14302.6
-19010.8,-15985.8,-18179,-26853.6,-12771.7,-8519.2,93750,-14304.8
-19010.5,-15985.5,-18181.6,-26854.6,-12775.1,-8520,93750,-14305.1
-19006.1,-15990.1,-18181.3,-26855,-12777.7,-8517.8,93750,-14303.1
-19004,-15988,-18182.7,-26851.7,-12775.6,-8514.3,93750,-14302.1
-19006.9,-15984.7,-18185.6,-26848,-12773.1,-8512.5,93750,-14300
-19010.5,-15983.3,-18183.5,-26846.4,-12772.6,-8514.1,93750,-14300.3
-19015.2,-15976.2,-18183.2,-26847.1,-12783.3,-8525.6,93750,-14311.4
-19020.8,-15970.8,-18182.8,-26850.1,-12792.8,-8530.3,93750,-14316.1
-19025.5,-15971,-18182,-26854.9,-12794.1,-8532.5,93750,-14317.4
-19032.5,-15966.9,-18184.7,-26856.1,-12790.5,-8530.1,93750,-14313.8
-19045.4,-15954.8,-18190.6,-26853.7,-12775.7,-8525.3,93750,-14303.1
-19040.1,-15953.9,-18188,-26850.2,-12773.2,-8519.7,93750,-14299.7
-19035.1,-15954.9,-18186.5,-26850.1,-12775.3,-8516.5,93750,-14298.1
-19030.7,-15956.2,-18180.2,-26851.3,-12776.8,-8516.2,93750,-14297.5
-19028.7,-15954.7,-18178.3,-26852.5,-12782.1,-8518.2,93750,-14300.5
-19029.7,-15955.3,-18182.8,-26854.1,-12786.4,-8520.3,93750,-14303.3
-19030.6,-15956.9,-18186.5,-26856.2,-12788.9,-8521.7,93750,-14304.7
-19030.8,-15961.3,-18188.3,-26856.1,-12790.8,-8521.6,93750,-14304.2
-19032.8,-15968.8,-18195.8,-26851,-12796.7,-8519.1,93750,-14300.7
-19035.3,-15963.4,-18198.9,-26850.9,-12796.4,-8519.1,93750,-14301.4
-19034.9,-15962.8,-18193,-26855,-12793.1,-8519.1,93750,-14301.9
-19034.7,-15960.6,-18184.5,-26858.9,-12793.9,-8521.5,93750,-14304.3
-19041.6,-15942.9,-18188,-26858.7,-12810.7,-8533.5,93750,-14315.8
-19042.3,-15942.8,-18188.6,-26865.8,-12817.2,-8539.3,93750,-14321
-19041.9,-15947.8,-18191.6,-26868.2,-12814.9,-8540.4,93750,-14321.6
-19043.6,-15954.9,-18193.9,-26870.7,-12810.9,-8539,93750,-14321.3
-19038.4,-15973,-18187.5,-26876.7,-12792,-8526.7,93750,-14311.4
-19029.9,-15983.4,-18185,-26875.2,-12774.4,-8517.9,93750,-14301.9
-19021.7,-15992.6,-18177.5,-26870.4,-12765.2,-8512.1,93750,-14296.5
-19021.2,-15992.6,-18175.9,-26863,-12765.2,-8510.2,93750,-14293.9
-19020.8,-15989.7,-18179,-26857.7,-12765.3,-8509,93750,-14291.5
-19019.8,-15988.5,-18184.6,-26853,-12765.5,-8509.5,93750,-14291.2
-19021.4,-15987,-18179.9,-26851.6,-12767.8,-8512.7,93750,-14293.5
-19022.8,-15987.1,-18177.4,-26854.5,-12772.1,-8517.1,93750,-14296.8
-19015.3,-15992.4,-18174.6,-26862.1,-12776.7,-8517.4,93750,-14298.6
-19010.2,-15993.2,-18170.3,-26864.8,-12776.9,-8517.9,93750,-14301.5
-19010.2,-15990.6,-18169.6,-26861.2,-12777.8,-8517.6,93750,-14301.9
-19009.2,-15987.4,-18170,-26856.5,-12777.9,-8517.2,93750,-14302.7
-19007.6,-15979.2,-18172,-26852.5,-12787.4,-8526.9,93750,-14313.1
-19013,-15973.2,-18178.9,-26852.7,-12796.2,-8530.8,93750,-14317
-19019.1,-15971.8,-18184.2,-26853.2,-12795.5,-8528.8,93750,-14315.3
-19029.7,-15968,-18185.2,-26856.1,-12791.2,-8529.4,93750,-14313.7
-19046.6,-15957.5,-18186,-26854.2,-12777.6,-8524.9,93750,-14303.8
-19044.7,-15960.7,-18178.2,-26850.9,-12777.5,-8523.7,93750,-14304.7
-19037.9,-15964.5,-18169.8,-26847.4,-12781.8,-8525.1,93750,-14308.4
-19030.5,-15965,-18160.5,-26845.1,-12786.3,-8525.3,93750,-14310.1
-19028,-15962.3,-18158.6,-26843.5,-12792.9,-8525.4,93750,-14310.7
-19027.4,-15960.1,-18166.8,-26841.3,-12794.3,-8523.8,93750,-14308.6
-19025.3,-15960,-18175.2,-26843.4,-12792.9,-8523,93750,-14306.1
-19025.4,-15965.2,-18183.8,-26848.7,-12794.1,-8522.5,93750,-14304.3
-19030.3,-15973.4,-18193.7,-26845.1,-12800.3,-8521.1,93750,-14302.6
-19035.7,-15968.4,-18194.2,-26844,-12802.4,-8524.5,93750,-14306.1
-19035.2,-15966.8,-18194.5,-26846.6,-12801,-8524.9,93750,-14308.2
-19031,-15962.8,-18190.1,-26848.4,-12802.3,-8526.7,93750,-14310.7
-19035.9,-15942.2,-18190,-26848,-12819.5,-8539.4,93750,-14322.5
-19034.8,-15939.7,-18186,-26859.8,-12823.9,-8542,93750,-14326
-19033.9,-15945.8,-18183.9,-26871.3,-12817.9,-8539.6,93750,-14324.3
-19033.6,-15953.8,-18186.3,-26876.4,-12810,-8534,93750,-14320.6
-19028.3,-15974.2,-18183.1,-26879.9,-12790.2,-8524,93750,-14311.1
-19023.8,-15987.1,-18178.1,-26877.9,-12773.8,-8519.8,93750,-14304
-19020.8,-15993.9,-18172.3,-26870.4,-12765.9,-8516.3,93750,-14300.7
-19021.7,-15990.9,-18174.1,-26860.2,-12767.1,-8514.9,93750,-14300
-19018.8,-15987.9,-18178.7,-26854.6,-12766.3,-8511.8,93750,-14297.2
-19018.7,-15985.9,-18176.4,-26852.4,-12765.9,-8511.2,93750,-14295.2
-19019.3,-15984.1,-18172.8,-26850.4,-12768,-8511.8,93750,-14294.7
-19020.6,-15984.4,-18173,-26849.1,-12769.6,-8511.9,93750,-14293.8
-19014.8,-15990.6,-18171.8,-26852.2,-12773.4,-8515,93750,-14296.4
-19013.5,-15993.8,-18167.4,-26852.1,-12775.2,-8517.6,93750,-14300.6
-19016.1,-15992.7,-18166.8,-26849.5,-12777.1,-8517.8,93750,-14301.2
-19015.5,-15989.2,-18166.4,-26848.3,-12779.6,-8519.4,93750,-14302.9
-19013.5,-15978.9,-18173.2,-26846.9,-12789.9,-8527.9,93750,-14313.4
-19013.3,-15972,-18175.8,-26849.5,-12797.3,-8528.8,93750,-14315.5
-19015.1,-15971.3,-18179,-26851.9,-12795.8,-8526.5,93750,-14312.9
-19021.3,-15967.3,-18179.3,-26852.3,-12789.5,-8525.8,93750,-14309.5
-19033.9,-15958.2,-18181,-26851.8,-12773.4,-8522.4,93750,-14300.1
-19031.5,-15960.7,-18173.4,-26851.5,-12770.7,-8520.6,93750,-14301.1
-19030.4,-15964.8,-18169,-26852.4,-12774.8,-8522.8,93750,-14306.1
-19028.2,-15965.6,-18168.3,-26850.6,-12778.6,-8521.1,93750,-14307.4
-19026.7,-15960.1,-18168.8,-26845.8,-12785,-8521.9,93750,-14309.9
-19024.6,-15958.2,-18165,-26845.7,-12787.1,-8522.9,93750,-14311.2
-19021.4,-15958.8,-18160.2,-26847.3,-12785.9,-8523.6,93750,-14311
-19019,-15963.3,-18163.6,-26848.1,-12786,-8523.5,93750,-14310.6
-19019.3,-15970.5,-18171.6,-26847.2,-12790.8,-8520.3,93750,-14307.8
-19019.8,-15967.5,-18172.6,-26852.9,-12790.5,-8522.8,93750,-14311
-19021.7,-15968.2,-18176.2,-26856.5,-12788.5,-8523.4,93750,-14312.9
-19025.2,-15965.1,-18180.8,-26856.8,-12789.9,-8523.5,93750,-14313.4
-19035,-15944.8,-18193.1,-26853.7,-12806,-8532.3,93750,-14322.7
-19038.1,-15940.7,-18200.1,-26856.1,-12810.3,-8533.5,93750,-14324.6
-19032.9,-15943.4,-18202.1,-26857.2,-12805.7,-8532.1,93750,-14322.3
-19026.2,-15949.6,-18204,-26858.2,-12799.1,-8530.4,93750,-14320.1
-19016.9,-15970.2,-18193,-26862.6,-12780.4,-8522,93750,-14311.4
-19010.2,-15985.4,-18184.8,-26863.5,-12764.1,-8515.7,93750,-14303.4
-19005.8,-15994.8,-18181.7,-26860.5,-12755.5,-8509.8,93750,-14297
-19008.4,-15993.8,-18178.5,-26855.1,-12759,-8512.2,93750,-14297.6
-19010.7,-15992.9,-18168.7,-26853.3,-12764.9,-8516,93750,-14300.9
-19009.9,-15992.1,-18163.8,-26849.4,-12769.2,-8516.1,93750,-14301.4
-19006.2,-15990.7,-18159,-26846.5,-12771.5,-8515.3,93750,-14300.8
-19004.9,-15992,-18156.3,-26847.5,-12774.3,-8516.3,93750,-14299.8
-18997.7,-15996.7,-18151.2,-26850.8,-12776.3,-8514.2,93750,-14297.7
-18997.3,-15997.4,-18147.6,-26853,-12774.8,-8513.4,93750,-14297.7
-19003.2,-15996.8,-18146.4,-26854.9,-12774.1,-8515.2,93750,-14297.6
-19004.8,-15994.9,-18148.3,-26856.2,-12774.8,-8518.9,93750,-14301.7
-19005.1,-15987,-18153.5,-26855.7,-12785.7,-8529.4,93750,-14315.2
-19007.4,-15980.1,-18157.8,-26856.5,-12794.4,-8532.2,93750,-14321
-19007.5,-15978.4,-18156.3,-26860.8,-12793.6,-8531.3,93750,-14319.7
-19008.9,-15975,-18156.3,-26863.2,-12787.1,-8528.8,93750,-14314
-19020.6,-15965.1,-18161.1,-26861.3,-12770,-8522.1,93750,-14300.3
-19016.7,-15969.2,-18153.8,-26861.9,-12765.9,-8518.4,93750,-14297.9
-19012,-15973.8,-18148.6,-26862.9,-12767.6,-8519,93750,-14299.2
-19008.9,-15975.7,-18149,-26863.8,-12771.3,-8521,93750,-14302.1
-19005.2,-15973.3,-18157.4,-26862.3,-12778.5,-8523.2,93750,-14306.9
-19002.7,-15972.9,-18161.9,-26862.8,-12783.1,-8524.1,93750,-14308.8
-19003.7,-15973.3,-18160.4,-26863.5,-12783.6,-8523.2,93750,-14308.2
-19005.8,-15979,-18158.9,-26864.6,-12784.1,-8520.7,93750,-14305.7
-19008,-15989.5,-18157.2,-26861.3,-12788.2,-8516.7,93750,-14301.7
-19010.8,-15987.8,-18155.8,-26862.1,-12787.2,-8518.5,93750,-14302.9
-19010.9,-15988.2,-18155.7,-26864.1,-12784.7,-8519.2,93750,-14303.8
-19013.4,-15984.6,-18157.7,-26863,-12787.4,-8522,93750,-14306.1
-19024.1,-15964,-18171.9,-26859.2,-12806.4,-8533.3,93750,-14318.3
-19026.5,-15960.4,-18176.8,-26865,-12812.7,-8536.3,93750,-14323.5
-19024.7,-15964.2,-18174.3,-26871.2,-12811.2,-8536.8,93750,-14325.2
-19021.4,-15971.9,-18168.7,-26876,-12806.8,-8534.5,93750,-14323.7
-19011,-15993.2,-18154.5,-26881.6,-12787.2,-8522.7,93750,-14313.5
-19002.2,-16007.6,-18145.8,-26880.8,-12768.7,-8512.7,93750,-14302.6
-19000,-16016.4,-18144.2,-26875.5,-12757.5,-8506.7,93750,-14294.9
-19002.9,-16015.5,-18144.1,-26868.9,-12758.4,-8507.4,93750,-14293.4
-19003.7,-16013.9,-18141,-26866.6,-12760.7,-8510.8,93750,-14295.6
-19004.9,-16012.5,-18142.5,-26864.7,-12763.1,-8512.5,93750,-14297.2
-19006,-16009.6,-18141.9,-26862.1,-12767,-8514.8,93750,-14300.4
-19008.1,-16009.2,-18138.9,-26861.5,-12771.3,-8517.1,93750,-14302.5
-19000.3,-16013.5,-18135.2,-26864.6,-12773.8,-8515.2,93750,-14302.1
-18995.1,-16013.3,-18133.5,-26864.4,-12771.9,-8512.9,93750,-14301.8
-18996.1,-16011,-18134.6,-26861.5,-12770,-8510.7,93750,-14299.2
-18999.2,-16008,-18132.5,-26858.4,-12769.9,-8513.2,93750,-14300.7
-19001.6,-15999.4,-18133.7,-26857.8,-12781.4,-8525.9,93750,-14314.3
-19007.2,-15994.1,-18143.4,-26860.8,-12790.8,-8529,93750,-14319.5
-19012.8,-15994.4,-18150,-26863.5,-12790.4,-8526.3,93750,-14317.4
-19019.2,-15990.7,-18155.2,-26864.7,-12785.1,-8523.7,93750,-14312.9
-19030.4,-15979.7,-18160.8,-26862.3,-12769.1,-8518.7,93750,-14301.5
-19024.1,-15981.1,-18155.2,-26859.5,-12765.4,-8514,93750,-14299.1
-19014.1,-15983,-18154.4,-26858.2,-12766.1,-8510.9,93750,-14299.2
-19009.2,-15984.2,-18156.7,-26858.7,-12767.9,-8509.5,93750,-14298.4
-19008.1,-15984.4,-18154.4,-26860.3,-12772.9,-8511.5,93750,-14299.9
-19010.9,-15985.3,-18151.2,-26863.5,-12777.2,-8515.7,93750,-14302.1
-19011.3,-15986.5,-18154.4,-26864.2,-12779.3,-8516.5,93750,-14303.2
-19011.9,-15990.6,-18163.5,-26862.3,-12781.9,-8515,93750,-14301.9
-19018,-15998.4,-18160.6,-26858.4,-12788.9,-8512.8,93750,-14299.4
-19022.9,-15994.6,-18153.3,-26859.7,-12790.1,-8515.9,93750,-14301.6
-19021.9,-15993.9,-18146.5,-26862.1,-12787.9,-8518.4,93750,-14302.7
-19021.5,-15988.4,-18143.2,-26860.9,-12788.5,-8519.1,93750,-14303.5
-19030.8,-15968.1,-18149.9,-26859.5,-12805.2,-8529.3,93750,-14313.5
-19031.5,-15965.5,-18155.2,-26869.6,-12810.3,-8533.3,93750,-14318.1
-19031.7,-15969.7,-18157.4,-26876,-12807.7,-8534.8,93750,-14319.9
-19033.5,-15976.2,-18158.8,-26878.5,-12803.4,-8531.4,93750,-14319.2
-19029.6,-15994,-18153.3,-26881.1,-12785.6,-8520.9,93750,-14311.2
-19021.2,-16005.2,-18143.3,-26877.6,-12769.3,-8513.9,93750,-14303.2
-19012.6,-16012.9,-18133.3,-26872.3,-12760.6,-8510.3,93750,-14299.5
-19006.7,-16013,-18126.8,-26866.6,-12761.1,-8509.4,93750,-14298.1
-19002.5,-16012.8,-18124.6,-26867,-12761.1,-8509.9,93750,-14297.4
-19000.4,-16012.9,-18124.5,-26867.4,-12761.8,-8510.5,93750,-14297.5
-18998.7,-16012.8,-18127.2,-26866.4,-12764.2,-8512.1,93750,-14298.8
-18999.2,-16014.2,-18133.9,-26867.4,-12767.5,-8513.2,93750,-14299.3
-18994.2,-16018.2,-18137.2,-26870.9,-12771.8,-8511.2,93750,-14298.5
-18995.7,-16016.6,-18138.6,-26868.7,-12772.4,-8508.8,93750,-14298.1
-18998.8,-16012.6,-18141.6,-26863.8,-12771.9,-8507.3,93750,-14296.1
-18996.9,-16009.3,-18141.4,-26862.3,-12770.5,-8506.6,93750,-14295
-18993.8,-16000.9,-18148.9,-26861.1,-12778.5,-8512.9,93750,-14302.6
-18998,-15994.7,-18165.4,-26860.5,-12785,-8512.8,93750,-14302.2
-19003.2,-15993.9,-18178,-26860.8,-12783,-8511.1,93750,-14298.8
-19009.4,-15991.1,-18184.9,-26862.4,-12778.3,-8512.3,93750,-14296
-19023.5,-15981.2,-18182.8,-26859.2,-12765.8,-8512.5,93750,-14288.5
-19021.6,-15983,-18166.1,-26856.1,-12766.7,-8513.8,93750,-14292.4
-19018.5,-15986.5,-18149.9,-26855,-12770,-8513,93750,-14295.8
-19016.6,-15988.3,-18138.9,-26855.4,-12771.7,-8510.8,93750,-14297.2
-19014.7,-15985.3,-18136.6,-26854,-12775.9,-8511.2,93750,-14299.6
-19013.4,-15984.1,-18134,-26855.1,-12777.7,-8513.3,93750,-14301
-19014.6,-15983.7,-18132.4,-26855.9,-12776.8,-8514.5,93750,-14301.8
-19018.1,-15987.8,-18136,-26856.8,-12777.4,-8516.4,93750,-14302.6
-19021.1,-15997.6,-18139.2,-26854.2,-12785.2,-8518.5,93750,-14303.8
-19021.5,-15995.3,-18134.5,-26855.2,-12788.8,-8523.9,93750,-14309.8
-19019,-15994.9,-18128.2,-26858.1,-12789,-8525.2,93750,-14312.9
-19019.1,-15989.9,-18125.6,-26856.9,-12792,-8526.3,93750,-14314.5
-19027.7,-15968,-18136,-26852.9,-12808.1,-8534.7,93750,-14322.6
-19029.5,-15963,-18141.8,-26858,-12811.2,-8534.9,93750,-14322.5
-19028.2,-15967.1,-18142.8,-26865.6,-12806.3,-8534,93750,-14320.2
-19026.4,-15974.3,-18141.8,-26871,-12800.2,-8531.6,93750,-14317.5
-19017.8,-15994.9,-18134.1,-26878.9,-12781.7,-8521.1,93750,-14308.3
-19010.9,-16009.6,-18128.3,-26882.2,-12766.2,-8515.1,93750,-14301.4
-19003.8,-16018.1,-18126.2,-26879.9,-12757.6,-8509.3,93750,-14296
-18999.6,-16016.5,-18124.3,-26874.7,-12759.2,-8507.8,93750,-14294.6
-18998.4,-16014.7,-18122.6,-26872,-12760.7,-8505.8,93750,-14292.6
-18999.2,-16012.7,-18121.9,-26868.3,-12760,-8503,93750,-14289.2
-18998.9,-16010.6,-18122.6,-26866,-12760.4,-8502.6,93750,-14287.5
-18999.2,-16010.1,-18126.4,-26864.5,-12762.7,-8505.1,93750,-14288.6
-18994,-16013.4,-18134.3,-26861.9,-12765,-8503.7,93750,-14288.8
-18996.2,-16013,-18135.9,-26859,-12766.1,-8504.7,93750,-14291.3
-19002.5,-16011.1,-18127.4,-26859.7,-12768.8,-8508,93750,-14294
-19005.6,-16008.2,-18121.2,-26859.4,-12769.9,-8510.4,93750,-14297.6
-19006.3,-16000.1,-18122.7,-26858.3,-12779.4,-8518.2,93750,-14308.6
-19007.3,-15994.6,-18123.6,-26861.2,-12787.1,-8519,93750,-14310.8
-19008.2,-15995.9,-18118,-26865.4,-12785.5,-8515.7,93750,-14306.2
-19015,-15993.6,-18119.2,-26867,-12779.1,-8514,93750,-14300.4
-19028.4,-15984.2,-18124.3,-26865.9,-12762.8,-8510.6,93750,-14290.2
-19024.4,-15986.5,-18120.5,-26866.2,-12761.4,-8510.5,93750,-14291.4
-19018.8,-15988.1,-18117.2,-26866.4,-12766.7,-8513.8,93750,-14297.3
-19012.7,-15987.3,-18112.9,-26864.3,-12772.3,-8515.1,93750,-14300.9
-19010.3,-15984.8,-18111.2,-26863.2,-12779.9,-8517.3,93750,-14304.5
-19009.8,-15983.2,-18110.1,-26861.7,-12782.2,-8516.8,93750,-14304.3
-19010.7,-15983.3,-18111.4,-26859.4,-12780.6,-8515.6,93750,-14302.5
-19011.7,-15989.1,-18113.8,-26858.9,-12779.9,-8513.8,93750,-14299.7
-19014.4,-15997.2,-18119,-26854.2,-12784.8,-8512,93750,-14296.4
-19014.5,-15991.7,-18134.6,-26851.6,-12785.1,-8513,93750,-14298
-19015.1,-15989.6,-18146.2,-26852.9,-12783.8,-8514.4,93750,-14300
-19016.5,-15983.4,-18148,-26852.4,-12786.4,-8518.1,93750,-14303.4
-19024.3,-15961.9,-18152.9,-26851,-12804.2,-8529.5,93750,-14315.3
-19025.8,-15958.1,-18152.1,-26860.6,-12810,-8531.1,93750,-14318.2
-19024.3,-15962.2,-18146,-26865.6,-12806,-8529.2,93750,-14316.3
-19021.8,-15971.3,-18140.8,-26869.9,-12799.3,-8525.4,93750,-14313.4
-19014,-15992.9,-18127.5,-26876.8,-12778.4,-8513.7,93750,-14303.2
-19006.2,-16008.2,-18121.6,-26878.5,-12760.6,-8507.2,93750,-14295.6
-19002,-16018.2,-18117.8,-26877.2,-12752,-8503.3,93750,-14292.2
-19004.8,-16017.8,-18117.5,-26871.3,-12755,-8504.2,93750,-14293
-19005.5,-16015.9,-18121,-26866.5,-12757.5,-8502.4,93750,-14291.7
-19007.2,-16015.3,-18116.8,-26866.4,-12758.9,-8500.5,93750,-14290.9
-19009.2,-16013,-18108.1,-26866.6,-12760.3,-8499.6,93750,-14289.9
-19010.8,-16012.2,-18104.1,-26868.3,-12762.6,-8500.5,93750,-14288.1
-19005,-16015.3,-18101.6,-26869.5,-12765.1,-8499.3,93750,-14285.8
-19004.9,-16015.6,-18101.7,-26868.6,-12764.7,-8500.3,93750,-14286.9
-19008.7,-16016,-18104.8,-26867.5,-12765.5,-8501.3,93750,-14287.2
-19009,-16014.8,-18107.5,-26865,-12767.6,-8504,93750,-14290.1
-19008,-16006,-18115.1,-26861.6,-12779.6,-8514.8,93750,-14303.3
-19009.4,-15999.3,-18124,-26860.4,-12789.1,-8517.5,93750,-14307.2
-19011.3,-15998.5,-18123.1,-26861.7,-12789.6,-8519.6,93750,-14306.8
-19015.9,-15993.7,-18121.8,-26860.4,-12785,-8520.1,93750,-14303.7
-19025.2,-15982.9,-18122.7,-26856.8,-12768.1,-8512.9,93750,-14291.4
-19021.2,-15983.8,-18119.8,-26856.6,-12765.2,-8509.8,93750,-14289.9
-19016,-15986.5,-18116.6,-26859.9,-12768.6,-8509.9,93750,-14292.1
-19012.4,-15986.7,-18114.3,-26863.4,-12772,-8510.1,93750,-14293.8
-19012.5,-15982.1,-18118,-26868,-12778.4,-8512,93750,-14297.1
-19014.1,-15980.7,-18127.1,-26872.1,-12780.4,-8511.3,93750,-14296.9
-19013.8,-15983.7,-18128.1,-26874.8,-12778.5,-8509.1,93750,-14295.4
-19011.1,-15991.1,-18128.2,-26873.2,-12777.5,-8507.3,93750,-14292.7
-19010.3,-16001.4,-18127.4,-26866.1,-12781.8,-8505.7,93750,-14289.2
-19013,-15998.2,-18120.5,-26864.9,-12782.4,-8510.6,93750,-14293.4
-19014,-15997.2,-18126.4,-26861.4,-12781.3,-8513.4,93750,-14295.8
-19018.7,-15993.1,-18129.9,-26853.9,-12784.1,-8517.7,93750,-14299.2
-19031.5,-15973.1,-18134.3,-26852.9,-12802.9,-8531.2,93750,-14311.9
-19033.7,-15969.8,-18132.3,-26869.3,-12809,-8533.4,93750,-14315.9
-19032.9,-15975.1,-18137.6,-26876.5,-12804.5,-8529.4,93750,-14313.9
-19031.2,-15983.1,-18141.7,-26875,-12797.3,-8524.2,93750,-14310
-19023.1,-16001.9,-18129,-26879.7,-12776.4,-8513,93750,-14299.3
-19014.1,-16013.8,-18112.9,-26882.6,-12757.6,-8506.4,93750,-14291.2
-19008.1,-16022.7,-18103.9,-26883,-12748.1,-8502.3,93750,-14286.4
-19002.1,-16019.4,-18112.4,-26883.2,-12749.4,-8499.7,93750,-14283.6
-18999,-16014.7,-18112.3,-26880.8,-12753.6,-8504.8,93750,-14287.4
-19000.4,-16012.6,-18110.1,-26870.9,-12760.1,-8511.2,93750,-14294.2
-18999,-16011.5,-18110.6,-26866.2,-12765,-8512.1,93750,-14297.3
-18996.9,-16012,-18115.2,-26863.5,-12768.1,-8510.4,93750,-14296.7
-18988.8,-16019,-18105.2,-26865.2,-12771.1,-8509.9,93750,-14295.8
-18986.8,-16022.4,-18094.1,-26863.6,-12770.7,-8511.1,93750,-14298.3
-18990.1,-16022.2,-18090.6,-26859.7,-12770.7,-8511.3,93750,-14297.9
-18992,-16018.9,-18090,-26859,-12770,-8511.9,93750,-14298
-18994,-16009.8,-18095,-26859.1,-12779.7,-8524.5,93750,-14310.3
-18998.3,-16003.8,-18103.1,-26861.6,-12788.1,-8527.3,93750,-14313.9
-19003.6,-16003,-18111.9,-26865.8,-12788.2,-8524.8,93750,-14311.7
-19011.8,-15999,-18119.9,-26867.3,-12782.3,-8520.3,93750,-14305.6
-19025.4,-15989.4,-18123.5,-26866.4,-12765.9,-8515.2,93750,-14294.1
-19018.6,-15990.6,-18113.2,-26863.2,-12761.1,-8510.5,93750,-14295.7
-19010.6,-15991.6,-18106.7,-26867.4,-12760.7,-8509.8,93750,-14295.6
-19004.7,-15990.4,-18106.9,-26882,-12760.6,-8506.1,93750,-14288.3
-19001.2,-15985.6,-18109.6,-26890.1,-12763.8,-8503.9,93750,-14289.3
-19001.8,-15985.8,-18113,-26882.5,-12768.5,-8510.7,93750,-14294.7
-19002.4,-15987.5,-18117.4,-26872,-12772.5,-8515.6,93750,-14299.4
-19002.1,-15993,-18126.6,-26866.6,-12777,-8515.6,93750,-14300.3
-19004.1,-16001.6,-18135.7,-26856.5,-12783.9,-8511.1,93750,-14296.6
-19008.7,-15998.5,-18127.4,-26856,-12785.3,-8514.2,93750,-14298.4
-19007.6,-15997.8,-18120.2,-26858.1,-12783.9,-8513.5,93750,-14298.4
-19006,-15992.7,-18124.8,-26854.9,-12785.2,-8513.7,93750,-14299.1
-19014.2,-15971.3,-18136.2,-26849.8,-12801.4,-8525,93750,-14310.4
-19017.3,-15967.2,-18140.9,-26855.4,-12806.2,-8529.3,93750,-14314.8
-19021,-15971.1,-18138.6,-26861.8,-12803.8,-8531,93750,-14315.2
-19023.6,-15976.1,-18139.6,-26867.1,-12799.3,-8529.6,93750,-14314.2
-19015.2,-15994.7,-18126.6,-26876,-12781.3,-8520,93750,-14306.4
-19005.6,-16009.2,-18113.6,-26879.3,-12765,-8512.2,93750,-14298
-18997.3,-16020.1,-18102.4,-26876.8,-12755.7,-8505.8,93750,-14290.8
-18996.4,-16022.3,-18094.5,-26871.2,-12755.9,-8503.2,93750,-14286.4
-18996.8,-16021.5,-18091.2,-26871.8,-12755.7,-8501.3,93750,-14283.2
-18996.5,-16019.6,-18092.5,-26873.5,-12756,-8500.8,93750,-14281.7
-18998,-16017.6,-18095,-26872,-12759,-8503.1,93750,-14282.9
-19000.6,-16016.8,-18101.8,-26869.4,-12762.8,-8506.2,93750,-14285.3
-18992.6,-16020.6,-18110.6,-26868.6,-12766.9,-8505.1,93750,-14286.1
-18988.7,-16020.1,-18113.5,-26865.2,-12765.8,-8503.5,93750,-14287.8
-18989.6,-16017.9,-18111.2,-26860.3,-12765.3,-8503.7,93750,-14288.8
-18990.3,-16014.3,-18104.5,-26856.1,-12765.8,-8504.5,93750,-14290
-18993.1,-16004.8,-18104.6,-26853.3,-12775.7,-8514.4,93750,-14300.5
-18996.8,-15998.4,-18107.8,-26856,-12784.8,-8517.7,93750,-14303.2
-18999.1,-15997.8,-18110.4,-26859.1,-12784.7,-8517,93750,-14300.9
-19006.6,-15993.6,-18120,-26860.9,-12780.2,-8516,93750,-14296.4
-19018.6,-15983.2,-18135.9,-26857.6,-12765.3,-8509.8,93750,-14284.4
-19013.3,-15984.1,-18136,-26854.5,-12762.2,-8506,93750,-14282
-19008.7,-15985.9,-18128,-26856.8,-12764.4,-8507.3,93750,-14284.9
-19004.7,-15985.4,-18120.2,-26857.4,-12765.8,-8506,93750,-14285.7
-19004.8,-15981.7,-18118.5,-26856.8,-12769.4,-8504.9,93750,-14286.5
-19006,-15981.2,-18119.9,-26859.2,-12768.7,-8503.3,93750,-14284.5
-19004.9,-15982.7,-18112.7,-26863.1,-12767.6,-8505.4,93750,-14284.8
-19004,-15989.4,-18106.9,-26868.6,-12770.9,-8509.3,93750,-14287.8
-19005.8,-15999.9,-18106,-26866,-12780,-8510.7,93750,-14289.9
-19009.4,-15996.8,-18106.9,-26863.6,-12784.1,-8515.9,93750,-14296.3
-19008.1,-15995.6,-18105.7,-26861,-12785,-8518.7,93750,-14300.4
-19005.7,-15989.5,-18103.2,-26862.1,-12786.6,-8517.6,93750,-14301.6
-19012.4,-15966.8,-18105.7,-26869,-12801.9,-8526,93750,-14309.6
-19012.9,-15963.8,-18103.8,-26877.8,-12805,-8528.1,93750,-14312.3
-19014,-15967.9,-18106.4,-26874.7,-12800.6,-8529.5,93750,-14313.2
-19013.7,-15974.3,-18113.4,-26870.3,-12796.2,-8528.8,93750,-14313.2
-19006,-15994.5,-18114.7,-26871.7,-12777.8,-8518.4,93750,-14303.9
-18999.1,-16009.6,-18119,-26869.8,-12762,-8512,93750,-14296.4
-18993,-16020.3,-18116.1,-26863.3,-12752.9,-8505.1,93750,-14290.6
-18993.6,-16020.5,-18115.5,-26853.6,-12753.4,-8503.2,93750,-14289
-18991.4,-16017,-18116.1,-26847.2,-12752.8,-8500.2,93750,-14286.9
-18989.8,-16014.2,-18115.8,-26844.5,-12751.5,-8499.5,93750,-14285.2
-18992,-16011.8,-18108,-26845.5,-12753.4,-8503.1,93750,-14286.7
-18994.7,-16013,-18096.9,-26850.7,-12757.6,-8506.2,93750,-14288.1
-18986.4,-16017.3,-18094.8,-26854.7,-12761.3,-8506.1,93750,-14288.6
-18984,-16017.5,-18097.5,-26856.6,-12764.2,-8509.6,93750,-14293.4
-18985.4,-16015.3,-18099.6,-26856.9,-12767.1,-8510,93750,-14295.1
-18986.9,-16010.7,-18101.8,-26855.3,-12767.9,-8508.9,93750,-14294.8
-18987.5,-16000.8,-18106,-26853.7,-12776.5,-8515.7,93750,-14303.4
-18990.5,-15993.8,-18109.3,-26856.8,-12783.2,-8517.3,93750,-14304.8
-18994.4,-15992.9,-18104.2,-26865.1,-12781.1,-8515.9,93750,-14301.7
-18999.1,-15989.3,-18103.9,-26874.1,-12774.8,-8514.5,93750,-14296
-19009.5,-15980,-18109.5,-26876.1,-12760.3,-8510.7,93750,-14284.9
-19007.4,-15983.8,-18099.8,-26873.2,-12760.4,-8511.8,93750,-14286.8
-19004.3,-15987.1,-18098.4,-26868.5,-12765.6,-8512.7,93750,-14291
-19002.3,-15987.3,-18104.3,-26859.8,-12769.5,-8512.3,93750,-14292.6
-19000.6,-15984.4,-18111.7,-26852,-12775.4,-8512.6,93750,-14294.5
-18999.4,-15984.1,-18114,-26853.3,-12776.5,-8511.8,93750,-14294.5
-18994.4,-15985,-18110.4,-26855.2,-12774.1,-8509.3,93750,-14291.9
-18994.5,-15991.4,-18111.5,-26857.5,-12774.4,-8510.2,93750,-14290.3
-18997.4,-16001.7,-18116.4,-26853.8,-12780.5,-8509.6,93750,-14288
-19001.6,-15999.3,-18113.7,-26854,-12782.9,-8514.1,93750,-14292.1
-19004.9,-15998.6,-18117,-26856.8,-12783.3,-8516.8,93750,-14295.2
-19006.9,-15992.7,-18116.3,-26856.3,-12787.6,-8520.5,93750,-14299
-19017,-15970.5,-18122.5,-26852.8,-12806.7,-8531.9,93750,-14310.9
-19018.1,-15966.3,-18125.2,-26859.7,-12811,-8531.8,93750,-14312.4
-19014.5,-15970.2,-18123.1,-26867.6,-12805.8,-8529.6,93750,-14309.6
-19010.7,-15977.2,-18121.7,-26871.9,-12797.3,-8524.8,93750,-14305.1
-19004.5,-15998.2,-18114.1,-26877.9,-12776.4,-8514.5,93750,-14294.5
-18998.5,-16013.2,-18108.7,-26878.8,-12759.2,-8507.5,93750,-14286.1
-18994.3,-16023.2,-18104.1,-26876.7,-12751.2,-8504.1,93750,-14282.5
-18997.8,-16022.9,-18102.6,-26870.5,-12754.6,-8505.1,93750,-14283.7
-18997.1,-16021.3,-18101,-26866.1,-12757.7,-8505,93750,-14284
-18994.7,-16019.7,-18097.8,-26869.2,-12759.9,-8503.3,93750,-14283
-18994.2,-16016.1,-18091.1,-26880.6,-12760.7,-8499.8,93750,-14281.1
-18995.4,-16015.3,-18089.5,-26880.4,-12760.6,-8498.2,93750,-14278.7
-18990.7,-16021,-18093,-26871.9,-12762,-8498.2,93750,-14278.9
-18988.8,-16022.8,-18106.1,-26863,-12760.3,-8495.7,93750,-14278.7
-18991.5,-16023,-18110.6,-26860.2,-12759.3,-8495,93750,-14277.8
-18994.4,-16021.7,-18104.7,-26862.5,-12761.3,-8500,93750,-14282.3
-18996.7,-16012.5,-18112.1,-26859.7,-12773.5,-8512.1,93750,-14295.7
-18999.2,-16004,-18123.1,-26856.1,-12782.8,-8515.3,93750,-14299.5
-18998.2,-16002.4,-18121.2,-26857.4,-12784.1,-8515.6,93750,-14298.4
-19000.2,-15998.9,-18113,-26861.9,-12779.5,-8513.8,93750,-14293.7
-19010.3,-15990.5,-18110.7,-26863.4,-12763.3,-8507.5,93750,-14282.4
-19004.2,-15992.6,-18110.4,-26861.6,-12759.1,-8503.4,93750,-14280.3
-19000.1,-15995.2,-18114,-26859.2,-12759.8,-8503,93750,-14281.5
-18999.5,-15994.9,-18116.9,-26856.8,-12762.4,-8506.1,93750,-14285.5
-19000.1,-15991.4,-18112.3,-26855.1,-12770.2,-8511.5,93750,-14291.8
-19001.2,-15991.2,-18107.3,-26856.1,-12775.1,-8514.7,93750,-14295.7
-19000.5,-15989.7,-18104.3,-26858.4,-12775.3,-8514.1,93750,-14295.7
-19001.8,-15992.8,-18104.7,-26863.1,-12775.5,-8511.4,93750,-14293.3
-19003,-16001.8,-18103.5,-26860.9,-12780.4,-8506.9,93750,-14288.3
-19003.7,-15999.9,-18101.3,-26864.5,-12780.1,-8508.2,93750,-14288.6
-19004.5,-15999.5,-18106.6,-26868.4,-12776,-8506.9,93750,-14287.1
-19006.3,-15995.3,-18107.6,-26867.6,-12777.9,-8510.9,93750,-14290
-19015.9,-15976,-18118,-26864.5,-12796.6,-8524.1,93750,-14303.2
-19017.9,-15972.2,-18126.3,-26870.2,-12803.8,-8527.6,93750,-14307.7
-19015.8,-15975.3,-18126.8,-26874.4,-12801,-8526.5,93750,-14307.1
-19012.7,-15981.1,-18125,-26878.5,-12794.6,-8522.4,93750,-14304.1
-19003.9,-16000.3,-18108.3,-26883,-12773.4,-8512.1,93750,-14294.1
-18996.9,-16014.4,-18093.8,-26883,-12754.6,-8506.9,93750,-14286.4
-18991.6,-16024.5,-18091,-26877,-12744.6,-8501.6,93750,-14280.9
-18992.2,-16024.3,-18097.5,-26866,-12746,-8500.8,93750,-14279.6
-18991.1,-16023.4,-18101.4,-26860.8,-12748.7,-8502.6,93750,-14281.2
-18988.8,-16022.9,-18106.7,-26856.3,-12751.6,-8503.1,93750,-14282
-18990.7,-16019.9,-18111,-26850.9,-12755.1,-8503.3,93750,-14283.1
-18993.9,-16018.3,-18106.1,-26850.9,-12758.4,-8503.4,93750,-14283.2
-18986.9,-16021.3,-18098.8,-26862.6,-12760.1,-8499.2,93750,-14279.9
-18981.7,-16020.3,-18095.5,-26867.5,-12757.7,-8495.5,93750,-14277.5
-18987.8,-16019.2,-18098.1,-26857.7,-12756.1,-8496.3,93750,-14276.6
-18993.1,-16017.4,-18099.5,-26846.6,-12756.8,-8499.8,93750,-14279.5
-18997.4,-16008.9,-18104.9,-26844.3,-12767.9,-8510.7,93750,-14292.8
-19002.7,-16002.5,-18114.3,-26850.4,-12776.7,-8512.3,93750,-14296.8
-19003.8,-16001.4,-18117.6,-26857.4,-12776.1,-8510,93750,-14294.5
-19006.5,-15998.3,-18114.3,-26861.6,-12771.3,-8509.8,93750,-14290.6
-19017.1,-15988,-18110.3,-26861.1,-12757.4,-8508.7,93750,-14283
-19008.8,-15988.5,-18098.8,-26858.5,-12755.7,-8506.9,93750,-14283.8
-19000.4,-15989.7,-18095.5,-26857,-12757.2,-8506.5,93750,-14285.1
-18994.7,-15988.8,-18101.1,-26855.8,-12757.6,-8504.3,93750,-14284.3
-18991,-15983.9,-18107.5,-26856.6,-12763,-8503.8,93750,-14285.5
-18989.3,-15984.2,-18110.4,-26863.1,-12766,-8505,93750,-14286.7
-18990.9,-15986.4,-18107.3,-26866.2,-12768.2,-8508.1,93750,-14289
-18993.5,-15992.6,-18106.6,-26865.1,-12771.7,-8509.4,93750,-14289.2
-18996.7,-16002.6,-18108.6,-26857.7,-12779.3,-8507.6,93750,-14287.1
-18998.3,-15999.7,-18110.4,-26854.3,-12780.1,-8508,93750,-14287.9
-18996.9,-15999,-18111.9,-26853.5,-12776.6,-8505.5,93750,-14285.8
-19000.4,-15993.5,-18111.4,-26850,-12776.2,-8505.5,93750,-14285.4
-19016.6,-15972.2,-18118.9,-26846.2,-12792.7,-8516.6,93750,-14295.3
-19021.7,-15968.2,-18121.5,-26852.8,-12798.6,-8519.8,93750,-14299
-19023,-15972.7,-18121.4,-26859.6,-12796.7,-8521,93750,-14299.6
-19022.8,-15981,-18120,-26863.7,-12794.6,-8521.2,93750,-14300.5
-19013.9,-16000.6,-18109.4,-26866.6,-12777,-8510.4,93750,-14292.3
-19003,-16013.6,-18106.8,-26864.2,-12759.8,-8501.4,93750,-14284.6
-18991.2,-16021,-18108.7,-26858.7,-12747.7,-8493.8,93750,-14277.8
-18988.1,-16019.7,-18101.4,-26853.4,-12747.6,-8494.2,93750,-14276.4
-18987.9,-16017.5,-18092.5,-26853.2,-12748.5,-8494.8,93750,-14276
-18990.6,-16016.2,-18091.5,-26853.9,-12749.7,-8496.1,93750,-14277
-18992.6,-16014.9,-18091.1,-26852.6,-12752.8,-8498,93750,-14278.9
-18994.2,-16015.1,-18092.2,-26853.4,-12757,-8500.7,93750,-14280.7
-18989.1,-16020.1,-18089.4,-26858.1,-12761.4,-8500.1,93750,-14281.2
-18985.3,-16020.1,-18088.3,-26860.1,-12761.7,-8497.2,93750,-14281.3
-18986,-16017.8,-18092.9,-26856.5,-12760.4,-8495.5,93750,-14278.6
-18983.5,-16014.3,-18097.4,-26849.8,-12759.5,-8496.3,93750,-14277.9
-18983.6,-16005.5,-18102.7,-26846.6,-12768.7,-8505.6,93750,-14288
-18987.7,-16000.5,-18103.1,-26852.2,-12776.5,-8509.6,93750,-14292.2
-18990.3,-16000.4,-18103.9,-26857.4,-12775.5,-8507.9,93750,-14289.4
-18997.7,-15997.4,-18112.4,-26858.7,-12770.6,-8508.5,93750,-14286
-19012.1,-15988.4,-18111.7,-26855.1,-12758.1,-8507.9,93750,-14279.3
-19010.6,-15990.4,-18100.6,-26851.3,-12758.2,-8506.4,93750,-14281.4
-19007.2,-15992.6,-18094.1,-26849.4,-12761.6,-8506.1,93750,-14284.3
-19002.6,-15991.1,-18090.1,-26847.8,-12763.5,-8504.7,93750,-14285.3
-19001.1,-15985.6,-18091.8,-26844.2,-12767.9,-8504.7,93750,-14286.7
-19000,-15984.6,-18097.1,-26843.3,-12769,-8504.6,93750,-14286.2
-18998,-15986.5,-18100.8,-26850.1,-12766.3,-8502.2,93750,-14284.8
-18999.6,-15990.9,-18104.9,-26864.3,-12765.4,-8500,93750,-14282.7
-19003.8,-16000,-18108.3,-26864.2,-12771.3,-8498.5,93750,-14280.9
-19010.6,-15996.9,-18117.5,-26855.8,-12773.1,-8500.6,93750,-14283.6
-19012.9,-15997.1,-18121.7,-26854.2,-12771.8,-8500.2,93750,-14283.7
-19013.9,-15993.7,-18110.2,-26855.3,-12774.7,-8503.6,93750,-14286.7
-19020.5,-15972.6,-18112.7,-26852.4,-12791.2,-8513.2,93750,-14296.9
-19019.6,-15968.5,-18118.9,-26857.9,-12794.8,-8514.2,93750,-14298.4
-19018.5,-15973,-18120.5,-26863.9,-12790.9,-8514,93750,-14297.8
-19018.3,-15981.3,-18117.1,-26871.1,-12785.1,-8512.7,93750,-14296.7
-19012.3,-16000.9,-18105.4,-26879.9,-12767.4,-8505.1,93750,-14289.1
-19007.5,-16013.7,-18097.6,-26880.4,-12753.2,-8500.9,93750,-14283.8
-19000.7,-16022.6,-18093,-26875.7,-12746.2,-8497.3,93750,-14280.1
-18998,-16022.3,-18094.6,-26866.7,-12748.9,-8496.8,93750,-14279.8
-18992,-16020.3,-18096,-26859.6,-12750.4,-8495.9,93750,-14278.8
-18986.2,-16019.5,-18097.9,-26854.8,-12751.2,-8493.3,93750,-14275.8
-18985.7,-16020.4,-18096.5,-26854.2,-12752.5,-8493.1,93750,-14273.6
-18986.2,-16022.5,-18094.8,-26858.6,-12754.1,-8493.5,93750,-14272.5
-18982.3,-16028.6,-18090.9,-26865.2,-12757.3,-8494.6,93750,-14272.1
-18983.6,-16027.5,-18088.5,-26864.4,-12759.9,-8498.5,93750,-14275.9
-18989.1,-16022.1,-18087.3,-26861.7,-12763.2,-8500.4,93750,-14278.2
-18994.1,-16016.9,-18087.5,-26857.3,-12765.9,-8502.3,93750,-14281.1
-18997.2,-16006.8,-18094.9,-26854,-12774.4,-8508.8,93750,-14290.1
-19003.4,-16000.4,-18105.3,-26854.2,-12778.7,-8504,93750,-14287.3
-19009,-16000.1,-18111.9,-26854.8,-12773.7,-8498.9,93750,-14281.2
-19015.2,-15995.5,-18121.2,-26853.8,-12765.1,-8497.1,93750,-14276.1
-19026.6,-15984.8,-18128.6,-26852.4,-12748.8,-8494.2,93750,-14267
-19019.9,-15986,-18128.5,-26852.8,-12747.6,-8493.2,93750,-14268.2
-19015,-15988.1,-18120.9,-26855.1,-12753.5,-8498.3,93750,-14274.5
-19014.6,-15988.9,-18108.3,-26855.1,-12759.7,-8501.2,93750,-14279.8
-19014.5,-15988.2,-18101.6,-26852.6,-12767.1,-8502.4,93750,-14283.5
-19011,-15988.1,-18100.1,-26848.3,-12770.2,-8503.3,93750,-14284.4
-19007,-15988,-18097.3,-26844.4,-12770.3,-8505.1,93750,-14285.3
-19004.7,-15991.2,-18100,-26844.1,-12770.7,-8505.1,93750,-14284.5
-19003.2,-15997.1,-18102.9,-26850.4,-12775.5,-8502.8,93750,-14282
-19002,-15991.1,-18099.8,-26865,-12777,-8507.1,93750,-14285.7
-19003,-15989.3,-18106.7,-26864,-12777.1,-8509.2,93750,-14288.8
-19006.8,-15986,-18112.5,-26856.1,-12780.9,-8512.3,93750,-14293.3
-19019.2,-15965,-18116.9,-26850.9,-12800,-8522.7,93750,-14304.9
-19025.3,-15960.3,-18117.3,-26856.4,-12804.4,-8522.6,93750,-14306
-19026.7,-15963.3,-18115.5,-26859.5,-12799.8,-8519.5,93750,-14303
-19025.2,-15969.4,-18115.9,-26860.5,-12792.9,-8515,93750,-14299
-19014.2,-15989.6,-18112.9,-26863.7,-12771.7,-8504.3,93750,-14287.8
-19004.8,-16004.6,-18109.3,-26864.4,-12754.4,-8499.5,93750,-14279.7
-18998,-16014.5,-18101.5,-26862,-12747.5,-8497,93750,-14276.4
-18998.1,-16013.7,-18099.1,-26856.9,-12751.4,-8499.6,93750,-14278.7
-18997.9,-16008.9,-18097.4,-26853.2,-12756,-8500.8,93750,-14280.6
-19000.1,-16005.3,-18092.3,-26850.8,-12759.8,-8500.6,93750,-14280.4
-19002.7,-16003.8,-18086.5,-26846.9,-12761.8,-8499.6,93750,-14279.4
-19002.9,-16004.6,-18087.3,-26843.7,-12762.2,-8498.1,93750,-14276.4
-18993.8,-16008,-18090.6,-26845.9,-12762.6,-8496.2,93750,-14275.2
-18989.6,-16006,-18100.1,-26843.4,-12760.6,-8495.9,93750,-14277.3
-18993,-16003.9,-18102.6,-26840.3,-12760.4,-8498.5,93750,-14280.1
-18995.5,-16000.8,-18104.3,-26837.7,-12761.9,-8502.3,93750,-14284.3
-18997.9,-15991.1,-18108.4,-26835.5,-12774,-8513.3,93750,-14297.5
-19001.9,-15985.6,-18109.3,-26839.6,-12784.2,-8516.2,93750,-14301.6
-19007.3,-15985.1,-18104.9,-26841.9,-12784.8,-8514.1,93750,-14299.2
-19013,-15979.8,-18102.5,-26842.8,-12778.8,-8510.1,93750,-14292.7
-19021.8,-15968.1,-18104.6,-26842.9,-12761.6,-8503.9,93750,-14280.2
-19014.9,-15969.9,-18103.4,-26842.5,-12758.9,-8502.7,93750,-14279.1
-19008.5,-15972.1,-18099.4,-26843.5,-12762.8,-8504.4,93750,-14281.6
-19005.1,-15971.7,-18097.4,-26853.9,-12765.5,-8502.3,93750,-14282.5
-19003.5,-15968.3,-18097.8,-26864.9,-12770.3,-8503,93750,-14284
-19005.3,-15967,-18102.5,-26859,-12772.8,-8504.7,93750,-14286
-19008.5,-15967.2,-18104.4,-26848.6,-12773.2,-8506.3,93750,-14287.6
-19009.7,-15972.7,-18101.9,-26841.4,-12775.3,-8507.1,93750,-14287.8
-19009.5,-15983.2,-18100.3,-26831.9,-12781.3,-8506.1,93750,-14285.8
-19010.8,-15980.7,-18098.4,-26830.5,-12783.1,-8510.9,93750,-14289.6
-19011.5,-15979.2,-18098.6,-26831.4,-12781.9,-8512.1,93750,-14291.1
-19013.4,-15974.8,-18100.8,-26832.6,-12784.6,-8513.4,93750,-14292.9
-19023.1,-15954.1,-18111.6,-26834,-12802.9,-8524.3,93750,-14303.9
-19025.6,-15949.3,-18116,-26845.4,-12808.9,-8527.3,93750,-14307.8
-19025.9,-15951.2,-18119.8,-26851.9,-12805,-8525.4,93750,-14306.6
-19023.1,-15956.6,-18121,-26853.6,-12798,-8519.6,93750,-14302.9
-19014.8,-15976.6,-18107.8,-26858.5,-12775.8,-8507.1,93750,-14291
-19006.1,-15991.2,-18095.9,-26859.1,-12756.2,-8500.4,93750,-14281.2
-18999.4,-16001.9,-18086.2,-26855.7,-12745.7,-8497.5,93750,-14276.5
-18999.6,-16001.3,-18088.2,-26847.8,-12747,-8498.2,93750,-14276
-18996.9,-15999.1,-18096.2,-26843.6,-12749.2,-8499.2,93750,-14276.4
-18996.3,-15997.4,-18104.6,-26843.5,-12751.4,-8497.7,93750,-14276.2
-18997.9,-15995.1,-18104.8,-26842.8,-12754.4,-8497,93750,-14276
-18998.9,-15994.6,-18102.3,-26843.6,-12757.2,-8498.5,93750,-14276.2
-18993.9,-15998.6,-18093.3,-26845.6,-12759.4,-8497.9,93750,-14276.4
-18993.5,-15999.2,-18084.5,-26840.7,-12758.4,-8497.8,93750,-14277.7
-18997,-15999.2,-18081.3,-26833.3,-12757.4,-8498.4,93750,-14277.3
-18998.4,-15997,-18083.3,-26830.2,-12757.8,-8501.8,93750,-14279.8
-18996.4,-15987.2,-18087.3,-26830.4,-12769.2,-8513.3,93750,-14292.5
-19000.1,-15979.9,-18092.4,-26837.6,-12780.2,-8517.8,93750,-14298.5
-19004.3,-15978.9,-18097.3,-26843.4,-12780.8,-8514.6,93750,-14296.5
-19011.2,-15977.4,-18095.6,-26844.6,-12777,-8514.1,93750,-14293
-19024.5,-15968.2,-18094.3,-26837.8,-12763.5,-8509.4,93750,-14281.4
-19018.9,-15969.2,-18092.8,-26835.7,-12760.5,-8502.8,93750,-14277.3
-19009.8,-15968.5,-18088.6,-26846.7,-12760.5,-8498.2,93750,-14274.4
-19006.4,-15965.8,-18080.6,-26850.3,-12762.1,-8499.3,93750,-14275.4
-19007,-15961.7,-18084,-26841.4,-12768.7,-8504.4,93750,-14281
-19010.4,-15959.8,-18099.7,-26834.3,-12772.6,-8506.7,93750,-14282.8
-19011.5,-15960.3,-18106.8,-26832.8,-12774.1,-8507.6,93750,-14282.7
-19013.9,-15965.6,-18107.8,-26833.8,-12776.8,-8508.4,93750,-14283.5
-19016.9,-15973,-18108.5,-26827.3,-12783.6,-8507,93750,-14283.4
-19016.6,-15969,-18103.7,-26826.2,-12785.2,-8510.2,93750,-14287.4
-19012.9,-15969.6,-18101.4,-26828.3,-12781,-8508.9,93750,-14287.3
-19012.8,-15967.7,-18098.1,-26830.4,-12779.4,-8509.7,93750,-14288.5
-19025.1,-15947.4,-18102.2,-26829.8,-12794.2,-8520.7,93750,-14299.2
-19031,-15943.9,-18102.6,-26836.8,-12798,-8524.6,93750,-14302.8
-19035.5,-15948.3,-18103.8,-26842.4,-12796.1,-8527.1,93750,-14304.6
-19034.8,-15955.2,-18105.5,-26847,-12792.9,-8524.3,93750,-14304
-19023.9,-15975.8,-18095.7,-26854.4,-12775.5,-8511.8,93750,-14293
-19014.5,-15991.1,-18086.3,-26857.7,-12759.1,-8502.9,93750,-14282.6
-19007.7,-16001.4,-18083,-26855.1,-12748.1,-8493.4,93750,-14273.1
-19005.5,-16001.3,-18089,-26846.4,-12746.2,-8489.3,93750,-14267.5
-19007.2,-16000.9,-18090.1,-26841.5,-12745.9,-8490.6,93750,-14266.7
-19010.5,-16000.6,-18087.6,-26839,-12746.4,-8491.3,93750,-14267
-19011.6,-15998.2,-18092.1,-26838.4,-12748.7,-8491.3,93750,-14266.8
-19011.3,-15996.1,-18103.2,-26841.2,-12752,-8492,93750,-14266.7
-19005.1,-15999.5,-18096.8,-26845.1,-12756.6,-8493.6,93750,-14268.7
-19004.2,-15998.6,-18086.8,-26844.2,-12758.2,-8496.1,93750,-14274
-19006.8,-15996.5,-18080.1,-26841.5,-12758.8,-8495.8,93750,-14275.8
-19006.3,-15993.5,-18078.4,-26839,-12758.1,-8495.4,93750,-14276.8
-19007.1,-15984.4,-18082.7,-26837,-12766.5,-8504.4,93750,-14286.8
-19010.1,-15977.8,-18087.3,-26839.4,-12774.6,-8508.4,93750,-14290.6
-19013.6,-15976.5,-18093.9,-26841,-12773.9,-8507.1,93750,-14289.5
-19020.9,-15972.5,-18107.8,-26840.3,-12768.5,-8506.1,93750,-14286.3
-19032.6,-15962.8,-18116.8,-26838.5,-12753.4,-8502.8,93750,-14277.9
-19026.5,-15965.8,-18105.5,-26839.1,-12752,-8500,93750,-14278.4
-19020,-15969.7,-18094.4,-26840.6,-12756.1,-8500.4,93750,-14281.9
-19017.1,-15970.7,-18087.8,-26839.5,-12759.4,-8499.6,93750,-14283.4
-19016.4,-15970.5,-18081.2,-26838.1,-12765,-8500.6,93750,-14284.2
-19019.1,-15971.5,-18078.3,-26839.9,-12768.3,-8502.1,93750,-14283.9
-19018.3,-15971.7,-18086,-26840.4,-12768.5,-8499.6,93750,-14281.3
-19017.3,-15976.8,-18101.3,-26840,-12768.9,-8496.5,93750,-14277.2
-19016.6,-15985.2,-18108.5,-26844.8,-12774.3,-8494.2,93750,-14273.9
-19020.5,-15981,-18100.7,-26851.6,-12776.8,-8499.7,93750,-14278.6
-19024.2,-15980.4,-18095.5,-26846.6,-12777.5,-8503.5,93750,-14282.5
-19026.3,-15976.1,-18095.8,-26837.7,-12780.4,-8505.6,93750,-14285.2
-19034.3,-15954.3,-18104.7,-26830.3,-12796,-8513.6,93750,-14293.6
-19036.3,-15949.5,-18113.3,-26834.2,-12798.6,-8513.3,93750,-14293.6
-19037.1,-15953.3,-18110.5,-26842.6,-12794.1,-8514,93750,-14293.1
-19035.1,-15960.7,-18106.3,-26852.9,-12789.6,-8514.5,93750,-14293.4
-19023.8,-15980.2,-18099.9,-26861.8,-12771.3,-8504.7,93750,-14284.8
-19015.3,-15992.6,-18100.4,-26861.7,-12754.9,-8498.9,93750,-14277.6
-19010.1,-16000.2,-18098.3,-26856.1,-12746.8,-8494.8,93750,-14273.9
-19010.5,-15998.8,-18093.4,-26849.2,-12747.7,-8494,93750,-14274.2
-19008,-15997.5,-18086.1,-26848.1,-12748.4,-8493.6,93750,-14275.1
-19003.2,-15997.6,-18080.9,-26848.4,-12748.8,-8493.2,93750,-14275.5
-19003.1,-15997.1,-18073,-26846.5,-12751.1,-8493.4,93750,-14275.3
-19006.5,-15996.5,-18074.3,-26844.7,-12753.5,-8493.8,93750,-14274.4
-19002.1,-16002.5,-18073.9,-26848.6,-12757.1,-8493.3,93750,-14274.1
-19002,-16003.5,-18077,-26849.5,-12758.5,-8493.5,93750,-14276.5
-19006.5,-16001.4,-18087,-26847.8,-12758.5,-8491.9,93750,-14275.6
-19006.1,-15998.2,-18089,-26843.6,-12757.9,-8491.9,93750,-14276
-19006.9,-15989.1,-18094.3,-26838,-12766.6,-8501.8,93750,-14286.7
-19010.3,-15983,-18092.9,-26836.3,-12773.8,-8504.6,93750,-14289.4
-19012.7,-15981.3,-18094.6,-26836.4,-12772.2,-8503.4,93750,-14286
-19017.4,-15976.3,-18097.9,-26835.4,-12767,-8503.8,93750,-14282
-19029.7,-15966.4,-18102.3,-26836.4,-12752.8,-8501.6,93750,-14273.2
-19024,-15967.5,-18097.5,-26841,-12751.4,-8500.8,93750,-14275.5
-19016.3,-15968.6,-18094.8,-26845,-12756.2,-8501.8,93750,-14280.2
-19011.5,-15968.4,-18097.1,-26840.9,-12759.7,-8499.2,93750,-14280.4
-19010.2,-15965,-18097.2,-26842.5,-12764.8,-8498.3,93750,-14281.1
-19006.5,-15964.3,-18097.8,-26852.3,-12765.6,-8495,93750,-14278.2
-19006.9,-15966.1,-18094.8,-26848.2,-12764.5,-8494.9,93750,-14276.3
-19010.7,-15972.8,-18093.4,-26839,-12766.2,-8499.5,93750,-14277.5
-19014,-15982.2,-18087.9,-26832.6,-12774.1,-8502,93750,-14278.4
-19019,-15978.3,-18085,-26834.7,-12777.4,-8506.6,93750,-14283.2
-19022.2,-15978.5,-18083.7,-26837.1,-12777.2,-8507.6,93750,-14285.7
-19025.2,-15975.3,-18085.4,-26835.9,-12780,-8510.1,93750,-14289.7
-19034.2,-15954.5,-18095.1,-26831.5,-12796.6,-8519.6,93750,-14300
-19035.2,-15948.8,-18100.9,-26835.3,-12799.9,-8520.6,93750,-14302.4
-19032.1,-15951.5,-18103.4,-26840.2,-12793.3,-8518.1,93750,-14299.4
-19028.4,-15958.4,-18104.1,-26845.6,-12784.7,-8514.4,93750,-14295.3
-19020,-15978.7,-18092.7,-26852.4,-12763.4,-8503.6,93750,-14284.8
-19013.7,-15993.8,-18086.3,-26853.6,-12746.1,-8497.5,93750,-14277
-19008.5,-16002.6,-18088.4,-26850.7,-12736.8,-8491.7,93750,-14271
-19010.4,-16001.2,-18092.9,-26845.5,-12738.2,-8491.5,93750,-14270.4
-19010.2,-15999.4,-18089.5,-26841.7,-12740.6,-8492.7,93750,-14271.7
-19009.7,-15998.4,-18083.3,-26839.4,-12743,-8494,93750,-14272.4
-19009.6,-15996.9,-18077.8,-26837,-12744.9,-8493.2,93750,-14271.4
-19006.9,-15996.1,-18083.5,-26838,-12745.7,-8490.9,93750,-14268.3
-18999.7,-16000,-18086,-26841.6,-12745.5,-8486.9,93750,-14265
-19000.6,-16001.6,-18081.4,-26844.6,-12742.8,-8486.6,93750,-14265.9
-19003.6,-16002.3,-18077.8,-26846.6,-12742.3,-8487.1,93750,-14265.9
-19004.4,-16001.4,-18074.9,-26849.8,-12744.8,-8490.7,93750,-14269.4
-19002.7,-15992.6,-18077.8,-26849.3,-12757,-8501.6,93750,-14282
-19005.5,-15985.3,-18086,-26846.8,-12767.5,-8506.1,93750,-14286.5
-19009.3,-15982.4,-18094.5,-26843.6,-12768,-8504.3,93750,-14283.2
-19013,-15976.8,-18100.8,-26839.2,-12762.1,-8500.9,93750,-14276.3
-19024.3,-15966,-18099.2,-26835,-12746.5,-8496.8,93750,-14264.7
-19020.9,-15969.1,-18085.1,-26835,-12744.8,-8496.6,93750,-14265.5
-19016.9,-15973.5,-18077.1,-26837.3,-12747.5,-8497.6,93750,-14269.3
-19014.7,-15976.5,-18076.6,-26837.9,-12750.7,-8499.2,93750,-14272.2
-19013.9,-15974.5,-18080.4,-26835.8,-12758.3,-8502.9,93750,-14277.1
-19013.5,-15972.6,-18083.8,-26833.5,-12761.6,-8502.3,93750,-14277.2
-19012.8,-15972.2,-18086.1,-26833.4,-12761.4,-8500.7,93750,-14275.6
-19014.1,-15975,-18089.5,-26832.5,-12761.6,-8498.4,93750,-14272.9
-19015.9,-15982.3,-18090.6,-26826.4,-12767.3,-8495.2,93750,-14268.7
-19019.5,-15978.6,-18090,-26826.6,-12767.2,-8496.3,93750,-14269.1
-19020.4,-15978.4,-18095.9,-26831.3,-12763.7,-8496,93750,-14268.9
-19021.7,-15975.7,-18094.8,-26837.9,-12764.8,-8499.1,93750,-14271.3
-19032.5,-15956.5,-18094.9,-26843,-12782.2,-8511,93750,-14283.5
-19037.7,-15952.9,-18097,-26849.1,-12787.8,-8513.4,93750,-14287.3
-19038.3,-15956.3,-18097.3,-26850.5,-12784.8,-8513.2,93750,-14287.9
-19036,-15962.7,-18097,-26852.6,-12778.7,-8510.9,93750,-14286.6
-19023.9,-15981.1,-18090.8,-26856.4,-12757.9,-8498.9,93750,-14276.1
-19013.8,-15993.9,-18087.4,-26853.8,-12738.5,-8489.8,93750,-14265.9
-19006.6,-16002.1,-18090.2,-26846.4,-12727.8,-8483.3,93750,-14258.3
-19006.6,-16001.2,-18099.7,-26836.3,-12728.9,-8482.5,93750,-14257.4
-19006.8,-16000,-18102.2,-26836.8,-12730.5,-8482.7,93750,-14257.8
-19006.4,-15998.8,-18088.1,-26850.1,-12733.1,-8485.6,93750,-14260.3
-19005,-15996.7,-18076.8,-26857.3,-12737.1,-8489,93750,-14263.6
-19006.1,-15996.8,-18077.3,-26849,-12741.3,-8491.7,93750,-14266.1
-18998.2,-16001.5,-18075.4,-26840.8,-12744.5,-8490.2,93750,-14265.9
-18996.3,-16001.8,-18071.6,-26837.1,-12743.5,-8489.8,93750,-14266.2
-19000.3,-16000.9,-18070.3,-26834.4,-12742.9,-8489.5,93750,-14264.2
-19001.1,-15999.7,-18072.2,-26832.5,-12742.9,-8491.9,93750,-14265.4
-19002.2,-15992,-18073.6,-26831.3,-12754.9,-8504.7,93750,-14279.1
-19007.8,-15988.2,-18079.2,-26834.9,-12766.2,-8508.4,93750,-14284.6
-19010.9,-15987,-18090.3,-26839.8,-12766.4,-8503.7,93750,-14280.9
-19013.9,-15981.3,-18097.5,-26842,-12760.4,-8501.2,93750,-14275.7
-19025,-15969.9,-18103,-26839.2,-12745.2,-8496.1,93750,-14264.6
-19019.7,-15971,-18103.9,-26836,-12740.4,-8489.1,93750,-14260.7
-19010.2,-15973.3,-18101,-26835.2,-12739.6,-8486.9,93750,-14260.5
-19006.1,-15974.1,-18096.5,-26835.1,-12740.6,-8490.2,93750,-14263.6
-19007,-15971.4,-18092.8,-26834.3,-12748.6,-8495.6,93750,-14269.7
-19010.9,-15969.9,-18094.7,-26834.7,-12751.6,-8495.5,93750,-14271.5
-19014.1,-15969.5,-18101.5,-26836.6,-12752.2,-8494.9,93750,-14272
-19015.4,-15973.6,-18110.5,-26838.4,-12755,-8492.6,93750,-14270.2
-19017.3,-15982.1,-18109.5,-26834.6,-12762,-8491.6,93750,-14268.5
-19016.9,-15979.2,-18098.6,-26835.6,-12764.4,-8497.6,93750,-14273.4
-19016.3,-15979.7,-18089,-26837.2,-12763.4,-8500.2,93750,-14275.8
-19018.7,-15975.3,-18084.1,-26835.9,-12764.6,-8501.4,93750,-14277.8
-19027.9,-15954.9,-18097.3,-26831.4,-12781.3,-8511.9,93750,-14288.6
-19029.1,-15952.7,-18102.6,-26837.2,-12786.6,-8515,93750,-14292.4
-19028.8,-15958,-18097.5,-26845.4,-12784.6,-8518.1,93750,-14294.4
-19026.7,-15967,-18097.2,-26853.1,-12780.6,-8516,93750,-14293.9
-19018.8,-15986.5,-18090.5,-26859.7,-12761.8,-8501.9,93750,-14282.2
-19012,-15998.2,-18078.2,-26859.7,-12745.8,-8495.5,93750,-14273.3
-19004.4,-16007.3,-18069.6,-26855.4,-12736.9,-8490.1,93750,-14266.6
-19001.3,-16007.5,-18067.3,-26850,-12737.2,-8489,93750,-14264.7
-18997.9,-16006.5,-18064.8,-26847.3,-12737.8,-8489,93750,-14263.5
-18997.9,-16005.3,-18068.5,-26844.2,-12739.6,-8490.3,93750,-14263
-19002.3,-16003.1,-18073.5,-26840.8,-12743.3,-8492.3,93750,-14264.7
-19005,-16003.8,-18076.8,-26837.3,-12748.3,-8493.9,93750,-14266.3
-19000.8,-16009.1,-18079.8,-26833.3,-12752.7,-8493.6,93750,-14267.1
-18999.3,-16009.8,-18086.2,-26827.8,-12752.5,-8491.1,93750,-14266.7
-19000.7,-16008.4,-18095.3,-26825.9,-12749.2,-8486.3,93750,-14262.2
-19000.2,-16006.9,-18099.9,-26824.2,-12744,-8481,93750,-14257.5
-19004.1,-16001.5,-18101.2,-26824.4,-12749.8,-8490.1,93750,-14266.3
-19013,-15995.5,-18100.1,-26822.4,-12756.7,-8496.3,93750,-14271.8
-19018.1,-15991,-18104,-26823.6,-12756.7,-8498.5,93750,-14272.4
-19023.6,-15983.2,-18114,-26836.2,-12752.2,-8495.6,93750,-14267.3
-19038.2,-15970.6,-18109.9,-26842.3,-12738.6,-8492.3,93750,-14257.5
-19035.6,-15971.1,-18098.2,-26833.8,-12741,-8495.4,93750,-14261.9
-19026.2,-15973.1,-18096.2,-26829.8,-12745.6,-8495.1,93750,-14265.4
-19021.2,-15974.3,-18091.3,-26830.5,-12747.2,-8492.8,93750,-14265.2
-19020.3,-15971.2,-18085.4,-26830.4,-12751.4,-8493.9,93750,-14266.7
-19020.7,-15969.8,-18082.1,-26830.5,-12753.9,-8497.7,93750,-14269.1
-19017.9,-15971.1,-18080.2,-26833.6,-12754.5,-8499.4,93750,-14270.9
-19018.8,-15978,-18080.8,-26836,-12757.6,-8500.6,93750,-14271.5
-19023.9,-15987.8,-18084.8,-26831.7,-12766.6,-8500.1,93750,-14271.1
-19027,-15982.7,-18084.9,-26830.2,-12769.6,-8504.8,93750,-14276.5
-19025.5,-15980.8,-18084.4,-26831.5,-12768.9,-8507.1,93750,-14280.5
-19023.7,-15976.1,-18085.5,-26829.3,-12770.8,-8507.5,93750,-14281.9
-19031.7,-15955.5,-18093,-26823.8,-12786.8,-8515.1,93750,-14290.4
-19033.3,-15950.8,-18099.5,-26827.5,-12790.1,-8514.9,93750,-14291.3
-19032,-15953.9,-18103.2,-26833.5,-12785.9,-8515.1,93750,-14289.4
-19030.3,-15960.5,-18100.9,-26838.6,-12780.4,-8514.1,93750,-14287.1
-19024.8,-15979.5,-18095.4,-26842.6,-12761.9,-8504.5,93750,-14277.8
-19021.3,-15992.7,-18095.4,-26843.1,-12746.1,-8497.7,93750,-14270
-19015.9,-16002,-18091.2,-26842,-12737.4,-8489.9,93750,-14263.6
-19016.5,-16001.3,-18091,-26834.1,-12737.8,-8486.9,93750,-14260.7
-19015.4,-15997.5,-18092.9,-26826,-12737.4,-8483.8,93750,-14258
-19016.3,-15995.2,-18091,-26820.2,-12737.9,-8483,93750,-14256.5
-19017.5,-15994.2,-18087.1,-26816.7,-12740.4,-8483.9,93750,-14256.9
-19019.9,-15994.2,-18086.3,-26817.6,-12743.5,-8485.3,93750,-14257.2
-19016.2,-15997.9,-18084.1,-26823.7,-12748.7,-8486.3,93750,-14258.2
-19014.7,-15995.9,-18086.9,-26824.9,-12750.2,-8486.6,93750,-14260.8
-19019.8,-15991.5,-18088.1,-26821,-12751.1,-8488.6,93750,-14262.4
-19022.4,-15986.8,-18088.1,-26814.2,-12752.2,-8490.6,93750,-14264.6
-19022.5,-15977.8,-18089.8,-26809.3,-12762.8,-8500.9,93750,-14275.4
-19025.1,-15972.7,-18086.5,-26811.9,-12771.2,-8504.1,93750,-14278.4
-19026.2,-15972.3,-18081.6,-26817.1,-12769.8,-8502.9,93750,-14275.2
-19030.9,-15967.1,-18086.4,-26821.3,-12763.6,-8501,93750,-14269.7
-19044.2,-15955.9,-18086.8,-26822.5,-12749.1,-8497.4,93750,-14260.1
-19042.3,-15957.8,-18082.3,-26823.8,-12747.3,-8494.9,93750,-14260.1
-19038.6,-15960.6,-18085.3,-26823.8,-12749.5,-8495.5,93750,-14264
-19035.2,-15960.6,-18082.7,-26819.8,-12752.2,-8495.8,93750,-14267.5
-19034.6,-15956.4,-18082.7,-26817,-12757.7,-8496.7,93750,-14270.7
-19029.8,-15954,-18082.5,-26826.8,-12757.3,-8492.5,93750,-14266.5
-19026.5,-15955.1,-18081.6,-26832.7,-12754,-8490.6,93750,-14263.3
-19025.4,-15962.7,-18086,-26826,-12754.1,-8492.1,93750,-14263.5
-19024.8,-15973.5,-18089.5,-26816,-12761.3,-8494,93750,-14264.4
-19027.4,-15969.7,-18089.5,-26813.4,-12764.9,-8500.3,93750,-14271
-19029.7,-15968.4,-18092.6,-26815.9,-12765.5,-8502.7,93750,-14274.7
-19032.4,-15962,-18096.1,-26816.1,-12768.4,-8503.6,93750,-14277.2
-19043.3,-15940.3,-18106.9,-26812.9,-12785,-8510.8,93750,-14285.6
-19045.3,-15936.6,-18109.7,-26819.3,-12788.1,-8509.9,93750,-14286
-19042.9,-15940.1,-18112.9,-26824.7,-12782.1,-8506.4,93750,-14281.2
-19039.6,-15947.6,-18110,-26830.1,-12774.2,-8503.3,93750,-14277.3
-19030.1,-15968.9,-18097.3,-26837.4,-12754.4,-8493.6,93750,-14268.6
-19020.4,-15983.3,-18091.8,-26838.2,-12736.2,-8486.2,93750,-14260.8
-19017.4,-15992.8,-18082.2,-26839.4,-12728,-8484.8,93750,-14258.5
-19022.5,-15992.7,-18072,-26833.5,-12732,-8487.3,93750,-14260.3
-19027.1,-15991.5,-18066.6,-26828.9,-12735.2,-8487.9,93750,-14261.4
-19027.5,-15990.6,-18068,-26825,-12737.2,-8485.7,93750,-14259
-19022.3,-15990,-18073,-26823,-12737.2,-8481.6,93750,-14256
-19021.4,-15990.1,-18073.9,-26823.5,-12736.7,-8480.2,93750,-14253.9
-19014.2,-15993.9,-18073.6,-26825.7,-12737.5,-8479.3,93750,-14252.8
-19010.9,-15993.2,-18075.6,-26822.1,-12737.9,-8481.2,93750,-14254.8
-19015.5,-15990.3,-18080.2,-26817.5,-12739.6,-8483.7,93750,-14256.6
-19017.8,-15987.2,-18082.2,-26815,-12743,-8486.3,93750,-14260.2
-19019.2,-15977.5,-18086.5,-26814.2,-12756.5,-8497.6,93750,-14273.3
-19022.8,-15970.4,-18089,-26816.8,-12768,-8500.6,93750,-14277.7
-19024.6,-15969.6,-18085.6,-26819.9,-12767.8,-8496.7,93750,-14273
-19028.8,-15966.8,-18083.5,-26821.5,-12761.6,-8494,93750,-14266.7
-19038.3,-15958.2,-18085.8,-26820.1,-12744.6,-8489.6,93750,-14255.1
-19031.8,-15959.9,-18086.2,-26817.2,-12740.5,-8485.7,93750,-14253.9
-19028.3,-15960.7,-18091.5,-26814.9,-12741.4,-8484.4,93750,-14256
-19030.2,-15960.4,-18093.5,-26815,-12743.6,-8484.8,93750,-14258.9
-19036,-15958.2,-18091.8,-26818.1,-12749.2,-8487.8,93750,-14263.9
-19038.6,-15958,-18088.1,-26822,-12751.8,-8488.9,93750,-14265.8
-19034.7,-15958.5,-18083.4,-26824.2,-12752.3,-8489.4,93750,-14266.2
-19030.8,-15963.1,-18081,-26825.3,-12753.6,-8488.1,93750,-14264.8
-19028.8,-15972.7,-18084.2,-26821.5,-12758.1,-8484.8,93750,-14260.9
-19028.1,-15970.6,-18080.6,-26825.5,-12758.4,-8488.9,93750,-14264.2
-19026.5,-15970.1,-18077.1,-26831.2,-12756.9,-8490.9,93750,-14267.5
-19028.1,-15965.7,-18076.9,-26830.8,-12760.1,-8495.7,93750,-14272.5
-19037.8,-15945.3,-18085.2,-26825.5,-12779.7,-8510.2,93750,-14287.1
-19040.3,-15941.1,-18095,-26829.9,-12786.4,-8512.9,93750,-14292.1
-19037.7,-15944.4,-18105.5,-26834.3,-12780.9,-8507.6,93750,-14288.3
-19035.7,-15952.3,-18108.1,-26835,-12773.3,-8503.4,93750,-14283.7
-19028.9,-15973.5,-18093.7,-26837.8,-12753.3,-8494,93750,-14274.4
-19021.4,-15987.4,-18080.8,-26835.5,-12736.2,-8486.7,93750,-14266.2
-19017.4,-15996.6,-18070,-26836.8,-12727,-8481.7,93750,-14261.1
-19017.2,-15994.6,-18063.2,-26840.6,-12728.4,-8480.2,93750,-14259.2
-19019.5,-15993.7,-18063.2,-26841.3,-12731.8,-8481.3,93750,-14258.9
-19022.7,-15994.2,-18069.6,-26828.9,-12736.4,-8484.4,93750,-14261.1
-19022.6,-15993.9,-18071.8,-26818.7,-12741.7,-8486.9,93750,-14263.8
-19019.1,-15994,-18076.7,-26817.7,-12744,-8485.9,93750,-14263.1
-19011,-15996.8,-18081.3,-26822.1,-12744.7,-8480.8,93750,-14259.6
-19009.3,-15993.7,-18083.8,-26821.3,-12741.3,-8476.9,93750,-14256.7
-19014.5,-15990.1,-18085,-26819.9,-12739.9,-8477.6,93750,-14255
-19018.5,-15986.2,-18084.1,-26817.9,-12739.4,-8479.7,93750,-14256.9
-19021,-15977,-18088.5,-26818.1,-12749.7,-8491,93750,-14269.5
-19028.3,-15971.8,-18087.1,-26825.2,-12760.5,-8497.8,93750,-14276.1
-19032.2,-15972.4,-18081.6,-26831,-12763.1,-8500.1,93750,-14277.7
-19035.3,-15968.8,-18081.7,-26832.3,-12759.3,-8499,93750,-14275.1
-19043.6,-15959.3,-18080.7,-26829.5,-12744.4,-8494.8,93750,-14264.5
-19035.8,-15961.2,-18075.4,-26824.6,-12741.6,-8491.7,93750,-14264.4
-19027.8,-15963.4,-18075.7,-26821.6,-12743.7,-8490.5,93750,-14266.2
-19023.8,-15964.4,-18074.4,-26821.9,-12745.1,-8489.3,93750,-14267
-19024.5,-15964.5,-18072.4,-26821.8,-12749.7,-8491.9,93750,-14270.2
-19028.9,-15965.3,-18072.4,-26826.2,-12753.2,-8493.2,93750,-14271.7
-19032,-15964.8,-18074.6,-26829.9,-12754.1,-8493.1,93750,-14272.2
-19032.9,-15968.3,-18082.4,-26829.6,-12756,-8492.1,93750,-14271.4
-19030.4,-15975.3,-18095.8,-26821.5,-12762,-8488.4,93750,-14267.7
-19029.6,-15971.6,-18090.9,-26819.8,-12763.9,-8493.4,93750,-14271.4
-19027,-15971.6,-18083.7,-26822.7,-12761.4,-8494.9,93750,-14273.5
-19026.4,-15967.3,-18083.3,-26822.4,-12761.6,-8496.1,93750,-14276
-19035.9,-15946.8,-18089.7,-26819.8,-12777.7,-8506.9,93750,-14287
-19040.9,-15942.5,-18093,-26825.9,-12783.5,-8510.5,93750,-14291.3
-19044.1,-15945.3,-18093.9,-26831.9,-12781.1,-8511,93750,-14291.2
-19047.3,-15952.7,-18092.3,-26838.5,-12776.8,-8509.6,93750,-14290.2
-19039.3,-15972.5,-18087.2,-26845.4,-12756.6,-8494.5,93750,-14277
-19027.9,-15984.5,-18091.3,-26846,-12736.9,-8483.4,93750,-14264.8
-19017,-15994.6,-18089.3,-26843.8,-12724.9,-8477.2,93750,-14257.7
-19013.1,-15994.2,-18086.1,-26834.4,-12724.3,-8478.3,93750,-14256.7
-19012,-15992.6,-18078.4,-26827.4,-12727.5,-8483.4,93750,-14259.7
-19011.8,-15991.9,-18074.2,-26827.2,-12731.4,-8485.1,93750,-14262.1
-19012,-15990.1,-18069.2,-26836.4,-12734.5,-8485,93750,-14262.8
-19014.8,-15989.8,-18067.7,-26838.7,-12739.2,-8486.7,93750,-14263.9
-19011.6,-15996,-18067,-26833.2,-12744.1,-8487.2,93750,-14265.1
-19011.5,-15998.7,-18064.2,-26826.3,-12746.9,-8488.2,93750,-14268.2
-19013,-15998.6,-18064,-26822.1,-12748.3,-8485.7,93750,-14266.6
-19013.4,-15993.7,-18067.7,-26818.3,-12746.9,-8480.7,93750,-14263.1
-19015.7,-15983.3,-18070.8,-26816.9,-12754.6,-8488.2,93750,-14270.9
-19024.4,-15977.2,-18074.1,-26820,-12761.9,-8491.9,93750,-14273.7
-19031.3,-15977.6,-18076.6,-26825.9,-12761.5,-8492.9,93750,-14272.4
-19036.3,-15975.2,-18080.1,-26829.1,-12757.2,-8492.6,93750,-14269
-19044.5,-15965.6,-18085.6,-26827,-12743.3,-8489.4,93750,-14260.3
-19033.9,-15967.3,-18083.8,-26825.3,-12741.9,-8487.1,93750,-14261.3
-19023.6,-15967.8,-18085.3,-26822.9,-12744.2,-8487.4,93750,-14264.6
-19016.4,-15966.9,-18084.1,-26822.2,-12745.6,-8485.7,93750,-14265.4
-19013.1,-15964,-18081.5,-26824.1,-12749.4,-8485.5,93750,-14267
-19015.7,-15963.6,-18078.2,-26829.2,-12750.5,-8486.2,93750,-14267.6
-19016.9,-15962.9,-18082,-26834.2,-12748.8,-8482.6,93750,-14264.6
-19019.2,-15968.3,-18088,-26836.4,-12748.8,-8481.5,93750,-14262.9
-19022.8,-15978.4,-18093.6,-26828.5,-12755.1,-8482.1,93750,-14262.8
-19024.4,-15976.1,-18090.6,-26828.2,-12758.7,-8487.7,93750,-14268.5
-19021.1,-15977.5,-18085.8,-26831.2,-12758.6,-8488.9,93750,-14271.7
-19016.4,-15974.1,-18087.2,-26829.7,-12759.1,-8489.3,93750,-14272.8
-19021.3,-15952.4,-18091.1,-26825.4,-12775.4,-8502.6,93750,-14283.6
-19022.8,-15946.7,-18089.7,-26828.9,-12780.5,-8506.3,93750,-14287.4
-19024.3,-15950.4,-18089.8,-26834.1,-12776.9,-8506.4,93750,-14287.5
-19024.4,-15959.9,-18085.5,-26840.7,-12771.5,-8505.3,93750,-14287.3
-19016.9,-15981.7,-18074.9,-26848.8,-12752.1,-8494.6,93750,-14278
-19008.5,-15997.7,-18067.3,-26851.5,-12736.5,-8489.7,93750,-14271.4
-19001.9,-16008.2,-18056.7,-26847.5,-12729.1,-8486.1,93750,-14267.1
-18998.8,-16008.4,-18052.5,-26840.3,-12730.8,-8485.6,93750,-14266.7
-18994.9,-16007.1,-18050.1,-26836.5,-12730.7,-8483.9,93750,-14265.7
-18992.6,-16006.1,-18049.7,-26832.4,-12731.1,-8484,93750,-14264.6
-18993.2,-16003.3,-18052.7,-26828.3,-12732.2,-8484.3,93750,-14264.2
-18994.8,-16003.1,-18056.3,-26829.7,-12733.6,-8483.8,93750,-14263.8
-18989,-16007.7,-18056.2,-26834.2,-12736.8,-8483.3,93750,-14264
-18988.2,-16006.7,-18058.8,-26833.3,-12738.5,-8484.1,93750,-14266.4
-18989.5,-16002.9,-18062.8,-26830,-12740.1,-8484.7,93750,-14266.9
-18988.4,-16001.1,-18062.9,-26828.1,-12741.1,-8485.4,93750,-14268.3
-18986,-15994.3,-18066.7,-26827.4,-12750.4,-8493.6,93750,-14278.4
-18988.8,-15987.8,-18071.9,-26827.6,-12757.2,-8494.3,93750,-14279.4
-18992.6,-15986.3,-18071.5,-26828.5,-12755.4,-8491.8,93750,-14275
-18998.1,-15982.3,-18070.5,-26831.3,-12750.1,-8491.2,93750,-14270.9
-19009.4,-15972.7,-18075.7,-26832.8,-12735,-8487.4,93750,-14261.1
-19005.6,-15975.6,-18070.9,-26835.6,-12732.5,-8484.7,93750,-14260.7
-19002.9,-15978.4,-18065.4,-26839.7,-12735.5,-8485.3,93750,-14263.3
-19001.9,-15978.3,-18062.4,-26839.1,-12739.3,-8486.4,93750,-14266.2
-19000.4,-15974.6,-18066,-26834,-12745.1,-8486.7,93750,-14268.9
-19001,-15974,-18066.8,-26830.9,-12747,-8486.1,93750,-14268.5
-18999.5,-15975.6,-18059.9,-26829.3,-12745.2,-8484.8,93750,-14266.5
-18999.5,-15982.1,-18053.9,-26831.9,-12746.3,-8487.4,93750,-14266.7
-19000.1,-15991.4,-18054.7,-26831.4,-12753.2,-8486.6,93750,-14265.8
-19003.1,-15988.8,-18055.1,-26833.4,-12761.4,-8490.2,93750,-14269.7
-18999,-15988,-18050.9,-26830.7,-12790.7,-8487.3,93750,-14268.6
-18995.8,-15982.5,-18049.4,-26824.4,-12814.2,-8485.5,93750,-14267.1
-19003.5,-15960.3,-18060.3,-26816.4,-12840.8,-8493.4,93750,-14274.9
-19005.6,-15953.9,-18063.4,-26817.1,-12851.3,-8494.6,93750,-14276.2
-19004,-15955.1,-18060.6,-26819.3,-12850.4,-8492.5,93750,-14273.2
-19000.8,-15961.5,-18057.9,-26826.6,-12845.5,-8487.2,93750,-14268.3
-18991.7,-15983.7,-18050.1,-26836.3,-12825,-8473,93750,-14254.8
-18988.8,-15998.8,-18045.1,-26834.8,-12808.4,-8465.5,93750,-14245.7
-18989.5,-16008.4,-18039.7,-26827.1,-12802,-8464.2,93750,-14243.5
-18990.6,-16007.2,-18040.7,-26817.5,-12806.9,-8466.1,93750,-14245.6
-18986.9,-16004.6,-18044.5,-26812.4,-12811.4,-8466.1,93750,-14246.4
-18983.7,-16002.2,-18053.4,-26808.2,-12813.8,-8464.5,93750,-14245
-18979,-15999.2,-18065.2,-26803.5,-12813.9,-8459.1,93750,-14240.6
-18975.6,-15997.9,-18068.7,-26803.9,-12813.7,-8457.5,93750,-14236.9
-18969,-16002.4,-18061.4,-26809.5,-12815.7,-8458.3,93750,-14237.2
-18968.2,-16003.7,-18052.4,-26816.8,-12816.3,-8458.8,93750,-14239
-18968.6,-16000.7,-18047.4,-26831.5,-12816.4,-8458.3,93750,-14238.4
-18970.3,-15996.3,-18039.8,-26843.6,-12817.9,-8461.4,93750,-14242
-18973.9,-15988.3,-18041.6,-26838.4,-12830,-8473.1,93750,-14256.5
-18979,-15983.1,-18054,-26827.6,-12839.2,-8475.9,93750,-14261.3
-18984.3,-15982.9,-18052.8,-26823,-12839,-8476.9,93750,-14260
-18989.7,-15978.8,-18048,-26820.1,-12833.5,-8476,93750,-14255.9
-18998.8,-15968.3,-18052.9,-26818.1,-12818.1,-8471.7,93750,-14244.8
-18992,-15971,-18048.1,-26819.6,-12815,-8468.7,93750,-14243.9
-18987.1,-15974.6,-18042.2,-26821,-12818,-8471.3,93750,-14247.8
-18985.5,-15974.3,-18044.4,-26819,-12822.2,-8472.5,93750,-14251
-18987,-15970.1,-18055.3,-26815.2,-12827.9,-8472,93750,-14253.9
-18990.7,-15968.8,-18062.2,-26815.1,-12829.7,-8471.8,93750,-14254.4
-18991.5,-15969.2,-18060.7,-26815.1,-12828.7,-8471.8,93750,-14253.9
-18990.4,-15974.6,-18060.7,-26813.7,-12828.4,-8468.9,93750,-14251
-18989.5,-15983.8,-18069.7,-26809.2,-12832.5,-8463.8,93750,-14244.9
-18988.7,-15981.8,-18070.9,-26811.7,-12833.5,-8466.5,93750,-14245.9
-18986.2,-15983.4,-18068.7,-26815.3,-12832.4,-8470.3,93750,-14249.2
-18985.1,-15980.7,-18061.7,-26816.5,-12836.3,-8477.5,93750,-14256.3
-18995.9,-15961.2,-18064.5,-26815.4,-12856.3,-8491.3,93750,-14270.8
-18999.8,-15958.5,-18066.8,-26823.1,-12862.5,-8493.2,93750,-14274.9
-19002.3,-15962,-18064.4,-26832.2,-12858.9,-8490.6,93750,-14273
-19002.7,-15968.1,-18057.4,-26839.3,-12853.4,-8485.9,93750,-14268.8
-18993.7,-15986.5,-18045.6,-26846.6,-12833.5,-8471.8,93750,-14254.9
-18983.1,-15998.7,-18042.5,-26848.8,-12814.5,-8462.2,93750,-14243.3
-18974.3,-16007.1,-18049.6,-26843.5,-12802.1,-8454.8,93750,-14234.9
-18975.1,-16008.5,-18048.8,-26834.1,-12804.1,-8457.6,93750,-14235.8
-18976.9,-16009.3,-18040.2,-26831.1,-12808.5,-8460.2,93750,-14238.7
-18976.9,-16009.9,-18041.4,-26828.9,-12811.9,-8461.5,93750,-14240.4
-18977.9,-16007.8,-18044.9,-26825.3,-12814.6,-8462,93750,-14240.7
-18979.9,-16007.7,-18043.5,-26826.1,-12816.7,-8463.3,93750,-14241.2
-18971.3,-16012.5,-18041.8,-26826.6,-12818.2,-8461.4,93750,-14240
-18967,-16012.3,-18044.5,-26820.4,-12817.1,-8461.7,93750,-14240.3
-18968.8,-16008.4,-18049.4,-26812.2,-12817,-8461.3,93750,-14238.9
-18970.2,-16003.6,-18052.8,-26807.8,-12817.6,-8462.6,93750,-14239.7
-18972.3,-15994.1,-18065,-26806.4,-12828.5,-8472.4,93750,-14251
-18976.6,-15987.9,-18069.8,-26810.7,-12837.7,-8476.6,93750,-14256.2
-18979.9,-15987.6,-18064.5,-26818.3,-12840.3,-8480.9,93750,-14259.2
-18981.1,-15984.6,-18058.3,-26822.6,-12837.7,-8481.8,93750,-14258.1
-18990.2,-15973.4,-18058.9,-26820.1,-12823.4,-8475.7,93750,-14247.2
-18983.4,-15974,-18050.2,-26816.1,-12820,-8472.2,93750,-14245.2
-18977.9,-15977.2,-18043.2,-26814.4,-12822.5,-8473.1,93750,-14247.1
-18971.7,-15979,-18043.6,-26815.2,-12824.1,-8471.7,93750,-14247.7
-18968.7,-15976,-18049,-26818,-12828.1,-8471.9,93750,-14249.5
-18969,-15975.3,-18055.2,-26822.3,-12829.6,-8472.8,93750,-14249.8
-18971.5,-15977.2,-18055.6,-26826.3,-12829.7,-8475.1,93750,-14251.4
-18973.3,-15982.9,-18058.1,-26827.6,-12830.7,-8474.8,93750,-14251.2
-18973.7,-15989.6,-18070.4,-26820.1,-12834.7,-8470.1,93750,-14248.1
-18977,-15985.3,-18064.1,-26818.4,-12834.6,-8472.7,93750,-14251
-18980.6,-15984.8,-18054.6,-26816.9,-12832.2,-8474,93750,-14252.7
-18987,-15980.3,-18050.3,-26812,-12834.5,-8476.8,93750,-14254.5
-18998.5,-15958.8,-18057.8,-26814.8,-12851.5,-8485.1,93750,-14262.5
-18998.6,-15954.6,-18065.8,-26834.6,-12854.7,-8482.9,93750,-14261.7
-18996.3,-15959.6,-18069.8,-26843.2,-12851.7,-8482.1,93750,-14261.3
-18996.5,-15968.1,-18067.5,-26839.5,-12847.9,-8482.6,93750,-14263
-18988.9,-15988.8,-18061.1,-26836.6,-12830.2,-8473.2,93750,-14256.4
-18979.4,-16001.3,-18053.4,-26833.1,-12813.3,-8465.3,93750,-14248.6
-18969.1,-16009.7,-18044.8,-26828.3,-12804.1,-8461.7,93750,-14243.7
-18965.3,-16008.4,-18040,-26820.4,-12805.7,-8463.7,93750,-14244.2
-18960.5,-16006.8,-18037.6,-26817.5,-12807.6,-8465,93750,-14244.8
-18956.9,-16007,-18038.7,-26818.1,-12808.3,-8464.5,93750,-14244.5
-18958.3,-16006.4,-18042.2,-26818.7,-12810.1,-8465.1,93750,-14244.6
-18959.5,-16007.3,-18048.6,-26819.2,-12813.9,-8465.9,93750,-14244.5
-18953.6,-16012.5,-18048.3,-26821.4,-12818.1,-8464.9,93750,-14243.9
-18952.3,-16011.6,-18047.4,-26820.6,-12818.5,-8464,93750,-14244.5
-18953.3,-16008.7,-18043.4,-26819.1,-12818.4,-8463.2,93750,-14242.7
-18953.2,-16006,-18034.8,-26818.2,-12818.1,-8462.4,93750,-14241.2
-18954.8,-15997.6,-18039.3,-26817.6,-12826.7,-8471.6,93750,-14251.3
-18959.9,-15991.8,-18045.9,-26818.9,-12833.6,-8474.2,93750,-14254.3
-18967.5,-15991.7,-18041.9,-26821.6,-12833.6,-8475.8,93750,-14253.2
-18974.1,-15988,-18042.5,-26822.3,-12831,-8478.5,93750,-14251.5
-18984.9,-15977.8,-18051.6,-26817.9,-12819.2,-8475.2,93750,-14242.2
-18977.7,-15980,-18055,-26813.7,-12817.5,-8469.8,93750,-14240.1
-18970.8,-15982.5,-18049.2,-26815.9,-12818.9,-8469.3,93750,-14242.6
-18969.9,-15981.1,-18040.4,-26816.6,-12819.6,-8468.6,93750,-14243.7
-18970.4,-15976,-18038.9,-26813.8,-12821.9,-8467.8,93750,-14244.3
-18970.3,-15975,-18042.8,-26816.5,-12822.3,-8468.9,93750,-14245.1
-18969,-15974.6,-18047.9,-26817.9,-12820.8,-8467.8,93750,-14244.1
-18970.1,-15978.8,-18058.1,-26819.4,-12821.6,-8467.4,93750,-14243.1
-18975.3,-15987.3,-18062.5,-26815.6,-12828.4,-8467.2,93750,-14242
-18979.1,-15984.4,-18058.7,-26817.6,-12832.2,-8471.7,93750,-14246.2
-18977.2,-15984.7,-18050.2,-26821.4,-12832.4,-8474,93750,-14249
-18976.2,-15980.3,-18047.2,-26818.8,-12834.9,-8475.2,93750,-14251.6
-18984.2,-15958.8,-18058.1,-26809.8,-12849.9,-8483.1,93750,-14259
-18986.6,-15955.4,-18066.2,-26811.8,-12852.9,-8484,93750,-14259.3
-18986.6,-15959.8,-18068.4,-26817.4,-12848.5,-8483.8,93750,-14257.7
-18983.5,-15965.9,-18070.3,-26826.9,-12843,-8482.7,93750,-14256.7
-18974.6,-15985.9,-18059.6,-26838.9,-12823.8,-8472.1,93750,-14248.1
-18968.8,-16001,-18045.9,-26842.7,-12808.8,-8468.8,93750,-14244.3
-18961.3,-16010.7,-18038.7,-26838.2,-12801.1,-8464.5,93750,-14241.9
-18961.9,-16009.2,-18037.7,-26827.8,-12802.9,-8464.3,93750,-14242.4
-18960.5,-16006.8,-18031.5,-26821.3,-12803.9,-8462.5,93750,-14241.7
-18960,-16006.7,-18031.1,-26818.1,-12802.8,-8458.9,93750,-14238
-18961.3,-16007.2,-18030.5,-26816.7,-12803.1,-8458.7,93750,-14236.6
-18962.3,-16008.9,-18029.3,-26816.8,-12805.1,-8461.6,93750,-14237.9
-18956.1,-16015.4,-18029.1,-26817,-12810,-8463.5,93750,-14240.2
-18955.6,-16015.3,-18027.8,-26813.2,-12814.1,-8467,93750,-14244.7
-18960.6,-16012,-18030.2,-26810.8,-12817.3,-8466.3,93750,-14244.7
-18961.8,-16006.7,-18043.2,-26807.1,-12816.7,-8462.4,93750,-14242.8
-18962.8,-15997.1,-18051.5,-26804.1,-12825.3,-8469,93750,-14250.7
-18965.6,-15991.1,-18052,-26804.5,-12832.4,-8471,93750,-14252.1
-18967.6,-15989.4,-18050.9,-26814,-12829.6,-8468.8,93750,-14248.7
-18967.7,-15986.2,-18044.1,-26832.3,-12822.4,-8467.1,93750,-14243.5
-18979.1,-15977.8,-18041.8,-26834.3,-12808.9,-8469.1,93750,-14237.4
-18975,-15980.5,-18037.9,-26824,-12810.4,-8471.1,93750,-14241
-18971,-15983.1,-18039.2,-26816.7,-12815.6,-8473.1,93750,-14246
-18967.6,-15983.5,-18039.9,-26812,-12820,-8472.8,93750,-14248.2
-18964.9,-15980.6,-18044.4,-26808.2,-12825.9,-8474.5,93750,-14250.4
-18963.4,-15978.3,-18049.6,-26803.8,-12827.3,-8472.2,93750,-14249.1
-18961.7,-15978.9,-18045.2,-26803,-12826.4,-8473.4,93750,-14248.1
-18962.6,-15984.2,-18045,-26807.9,-12826.8,-8473.8,93750,-14247.6
-18965.3,-15994.4,-18050.3,-26808.2,-12830.1,-8468.9,93750,-14243
-18969,-15993.2,-18048.6,-26813.1,-12831.6,-8473.3,93750,-14247.1
-18970.2,-15993.2,-18053.8,-26814.7,-12831.6,-8475.1,93750,-14250.2
-18972.1,-15989.1,-18050.5,-26814,-12836.3,-8479,93750,-14254.1
-18983.4,-15968.6,-18051.9,-26810.5,-12856.1,-8490.4,93750,-14265.8
-18985.9,-15963.7,-18054.7,-26813.4,-12861.4,-8491,93750,-14268.9
-18983.8,-15966.2,-18055,-26817.2,-12856.2,-8488.8,93750,-14266.9
-18981.4,-15972.7,-18050.2,-26822,-12850.1,-8486.7,93750,-14264.9
-18973.3,-15994.4,-18038,-26826.8,-12831.4,-8475.5,93750,-14254.7
-18966.1,-16009.4,-18034.1,-26825.7,-12816,-8469.8,93750,-14247.6
-18959.1,-16017.7,-18035.8,-26821.3,-12807.5,-8464.9,93750,-14243.4
-18959.3,-16014.5,-18039,-26816.9,-12809,-8464.4,93750,-14243.7
-18960.3,-16010,-18041.2,-26815,-12811.1,-8465.4,93750,-14245.6
-18960.4,-16007.4,-18042.2,-26809.8,-12812.4,-8463.6,93750,-14245.1
-18958.9,-16004.8,-18042.8,-26805.8,-12812.8,-8463.5,93750,-14245.2
-18955,-16005,-18040.7,-26806.5,-12813.6,-8464.8,93750,-14245.3
-18943.6,-16012.5,-18035,-26808.9,-12816.8,-8465.6,93750,-14245
-18941.5,-16014.9,-18036.6,-26806.5,-12817.8,-8466,93750,-14246.1
-18946.1,-16012.6,-18039.4,-26802.8,-12819.7,-8469.1,93750,-14248.3
-18950.4,-16008.1,-18037.5,-26798,-12823.6,-8474.1,93750,-14252.1
-18953.9,-15999.5,-18037.4,-26795.9,-12837.1,-8486.3,93750,-14265.2
-18957,-15992.4,-18041.9,-26800.7,-12846.6,-8487.9,93750,-14268.3
-18957.3,-15989.7,-18047.6,-26805.1,-12845.1,-8484.1,93750,-14265.3
-18958.4,-15984.8,-18049.1,-26807,-12838.3,-8481.5,93750,-14259
-18969.3,-15973.6,-18049.6,-26805.2,-12822.8,-8477.1,93750,-14246.4
-18965.4,-15974.1,-18049.7,-26802.8,-12818.8,-8473,93750,-14244
-18961.4,-15975.6,-18051.6,-26803.3,-12820.6,-8473.6,93750,-14246.8
-18960.9,-15975.3,-18055.2,-26804.6,-12822.8,-8473.2,93750,-14249.3
-18963.5,-15973.1,-18051.5,-26808.1,-12829,-8476.5,93750,-14254.2
-18964.5,-15973.7,-18042.2,-26810.9,-12833.4,-8478.9,93750,-14257.1
-18963.4,-15975.6,-18033.6,-26812.7,-12834.8,-8479.4,93750,-14257.5
-18963.8,-15980.7,-18032.8,-26812,-12836.5,-8479,93750,-14256.5
-18966,-15988.7,-18036.1,-26804.1,-12841.9,-8475.7,93750,-14252.7
-18968,-15983,-18040.4,-26800.2,-12842.7,-8477.8,93750,-14253.3
-18964.9,-15981.4,-18044.9,-26801.8,-12841.6,-8480.7,93750,-14255.6
-18963.9,-15976,-18045.5,-26801.7,-12846.2,-8485.8,93750,-14260.8
-18974.6,-15954.2,-18054.6,-26798.4,-12865.8,-8497.7,93750,-14273.2
-18979.2,-15949.2,-18062.1,-26805.5,-12872.9,-8500,93750,-14276.9
-18981.3,-15951,-18061.7,-26811.4,-12869.4,-8497.4,93750,-14275.4
-18979.9,-15956.3,-18058.7,-26815.5,-12863.3,-8494.5,93750,-14274.1
-18970.3,-15976.1,-18051.3,-26820.7,-12842.5,-8480.7,93750,-14261.8
-18957.9,-15988.7,-18045,-26820.4,-12823.1,-8471.6,93750,-14250.1
-18948.8,-15999.1,-18038,-26817.6,-12814.3,-8469.2,93750,-14245.1
-18949,-16000.4,-18034.7,-26811.7,-12816.8,-8471.1,93750,-14245.5
-18950.5,-16000.5,-18030,-26810.7,-12820.6,-8474.5,93750,-14248.8
-18950.1,-15999.7,-18027.6,-26807.7,-12825.3,-8476.1,93750,-14251.2
-18948.1,-15996.4,-18027.3,-26804.6,-12829.8,-8476.9,93750,-14252.6
-18947.7,-15995,-18028.8,-26801.1,-12833.3,-8478.3,93750,-14254.2
-18940.2,-15997.5,-18035.2,-26796.6,-12834.5,-8473.8,93750,-14251.2
-18940.9,-15996.7,-18032,-26793.6,-12831.9,-8473,93750,-14250.9
-18946.1,-15994.6,-18025.2,-26793.3,-12831.3,-8475.1,93750,-14251.5
-18947.9,-15991.5,-18023.5,-26791.6,-12831.2,-8475.6,93750,-14252.1
-18951.6,-15983.2,-18026.6,-26793.8,-12841.8,-8485.7,93750,-14263.6
-18956,-15978.6,-18031.1,-26800.7,-12851,-8489.3,93750,-14268.1
-18959.4,-15977,-18040.7,-26803.9,-12849.8,-8486.7,93750,-14266.3
-18965.1,-15973.1,-18047.1,-26805.2,-12844.4,-8484.3,93750,-14262.5
-18975.6,-15962.3,-18048,-26803.2,-12828.6,-8478.2,93750,-14250.9
-18969.3,-15962.6,-18042,-26802.2,-12824.2,-8474.7,93750,-14249
-18963.7,-15963.6,-18037.8,-26800.4,-12824.5,-8472.3,93750,-14248.6
-18964.1,-15963.8,-18035,-26798.8,-12826.1,-8473,93750,-14249.4
-18965.6,-15961.3,-18034,-26798.1,-12832.1,-8476.3,93750,-14253.2
-18966.7,-15960.1,-18040.7,-26800.2,-12835.2,-8478.6,93750,-14255.1
-18964.2,-15960.4,-18045.4,-26801,-12835.1,-8480.2,93750,-14255.8
-18962.3,-15964.9,-18045.3,-26802.2,-12837.8,-8482.3,93750,-14257
-18962.8,-15973,-18048.9,-26796.3,-12844,-8480,93750,-14254.8
-18961.9,-15970.4,-18042.8,-26797.9,-12845.9,-8482.7,93750,-14257.5
-18959.1,-15969.9,-18034.4,-26802.4,-12844.5,-8482.8,93750,-14257.9
-18961.7,-15965.7,-18030,-26803,-12844.8,-8484.5,93750,-14259.6
-18975.2,-15944.9,-18040.2,-26798.3,-12860.2,-8494,93750,-14269.7
-18980.1,-15941.7,-18047.2,-26806.8,-12864,-8496.2,93750,-14273
-18980.5,-15945.9,-18050.7,-26816.2,-12861.5,-8496,93750,-14273.7
-18976.5,-15951.3,-18058.7,-26818.8,-12856.8,-8491.9,93750,-14271.8
-18963.5,-15969.2,-18058.8,-26825.5,-12836.3,-8475.8,93750,-14258.3
-18952,-15980.9,-18050.1,-26838.4,-12817.2,-8465.8,93750,-14246.6
-18943.9,-15989.8,-18030.6,-26839.7,-12807.5,-8463.9,93750,-14242.5
-18943,-15990.4,-18020.8,-26823.7,-12810,-8467.4,93750,-14244.1
-18941.5,-15990.8,-18020.5,-26812,-12812.7,-8470.2,93750,-14246.1
-18946.4,-15991.4,-18021.8,-26803.8,-12815,-8470.5,93750,-14245.8
-18954.7,-15991.6,-18023.1,-26798.7,-12818.5,-8471.5,93750,-14246
-18957.8,-15992.1,-18030.8,-26796.2,-12821.7,-8471.7,93750,-14245.7
-18950.7,-15995.7,-18031.6,-26797.1,-12824.2,-8471,93750,-14246.2
-18949.1,-15995.6,-18022.3,-26795.8,-12825.8,-8472.2,93750,-14249.6
-18951.2,-15994.2,-18018.2,-26794.7,-12826,-8472.2,93750,-14249.7
-18949.6,-15991,-18016.4,-26792,-12825.5,-8471.7,93750,-14249.7
-18950.7,-15981.4,-18028,-26788,-12834.1,-8478.6,93750,-14257.9
-18957.1,-15974.8,-18037,-26788.4,-12840.9,-8480.9,93750,-14260.2
-18965.2,-15973.7,-18035.6,-26791.5,-12840.6,-8482.7,93750,-14260.7
-18969.7,-15969.5,-18036.5,-26796,-12836.8,-8481.7,93750,-14256.8
-18978.4,-15958.6,-18042.4,-26799.9,-12823.5,-8479,93750,-14247.1
-18971.5,-15959,-18038.9,-26802.8,-12821,-8473.9,93750,-14246.1
-18965,-15960.4,-18037.4,-26805,-12822.1,-8471.6,93750,-14246.5
-18960.9,-15960.4,-18034.2,-26805.2,-12823,-8470.1,93750,-14245.5
-18962.2,-15956.5,-18033.1,-26801.8,-12827.4,-8471.2,93750,-14245.9
-18964.4,-15955.7,-18038,-26800.5,-12829.2,-8471.5,93750,-14244.8
-18962.7,-15957.4,-18045.9,-26804.2,-12827.1,-8469.4,93750,-14242.7
-18964,-15963.7,-18054,-26808.2,-12826.8,-8468.5,93750,-14240.4
-18967.2,-15973.9,-18055,-26805.2,-12833.9,-8468.9,93750,-14240
-18969.9,-15972.5,-18056.3,-26805.6,-12836.3,-8472.4,93750,-14244.9
-18972.8,-15973.6,-18049.7,-26805.1,-12835,-8472.8,93750,-14247
-18978.4,-15970.6,-18039.1,-26801.9,-12836.5,-8474.1,93750,-14249.7
-18990.1,-15949.6,-18045.1,-26795,-12851.3,-8483,93750,-14259.7
-18993.9,-15943.9,-18054.8,-26799.9,-12853.6,-8482.5,93750,-14260.3
-18994.6,-15945.9,-18058.1,-26809.3,-12849.1,-8480.8,93750,-14258.7
-18992.3,-15953.1,-18055,-26816.3,-12843.4,-8480,93750,-14257.9
-18984,-15974.8,-18044.9,-26823.8,-12825.5,-8472.5,93750,-14250.6
-18975.4,-15988.5,-18039,-26823.4,-12812,-8468.9,93750,-14244.8
-18966.2,-15997.5,-18033.2,-26817.7,-12806.3,-8465.7,93750,-14241.9
-18961.5,-15995.8,-18031.9,-26806.2,-12810,-8465,93750,-14241.3
-18958.6,-15993.9,-18029.8,-26801.4,-12812.3,-8464.6,93750,-14240.1
-18956.5,-15992.7,-18028.8,-26800.6,-12812.4,-8461.9,93750,-14237.5
-18955.9,-15991.9,-18033.4,-26801.3,-12812,-8460.4,93750,-14235.2
-18958.3,-15992.4,-18042.6,-26801.1,-12811.8,-8460,93750,-14233
-18953.8,-15998.2,-18040.2,-26802.9,-12814.8,-8461,93750,-14232.9
-18955.8,-15998.9,-18036.2,-26803.7,-12818.4,-8464.6,93750,-14236.9
-18962.1,-15997,-18034.7,-26804.3,-12820.9,-8464.6,93750,-14237.2
-18962,-15993.9,-18035.6,-26804.2,-12821.5,-8463.9,93750,-14237.7
-18959.9,-15984.7,-18039.9,-26802.3,-12830.3,-8472,93750,-14247.3
-18963.5,-15978.2,-18042,-26801.2,-12836.8,-8474.6,93750,-14249.9
-18970.1,-15977.3,-18041.7,-26802.6,-12835.3,-8473.3,93750,-14247.8
-18978.3,-15973.9,-18041.3,-26803.1,-12830.4,-8471.2,93750,-14242.6
-18994.1,-15963.9,-18048.5,-26800.6,-12816,-8466.7,93750,-14231.8
-18989.2,-15964.5,-18051.6,-26797.2,-12814.7,-8464.6,93750,-14232.4
-18983.2,-15966.1,-18049.2,-26797.1,-12818.8,-8468.3,93750,-14239.2
-18977.2,-15966.2,-18049.9,-26796.6,-12822.8,-8468.1,93750,-14242.8
-18973.3,-15964.3,-18055.7,-26793.3,-12828.2,-8467,93750,-14244
-18975.1,-15964.1,-18056.9,-26790.1,-12828.8,-8465.6,93750,-14241.2
-18978.3,-15963.9,-18052.5,-26791.2,-12826.8,-8465.2,93750,-14239.2
-18978.2,-15969.1,-18047.7,-26796.9,-12827.2,-8466.5,93750,-14239
-18977.1,-15978.7,-18049.7,-26797.3,-12832.6,-8465,93750,-14238.2
-18976.2,-15976.6,-18049.7,-26805.5,-12834.2,-8468.8,93750,-14242.4
-18972.8,-15978.1,-18047.6,-26814.9,-12835.2,-8472.5,93750,-14245.7
-18972.7,-15975.5,-18044.5,-26815.5,-12839,-8475.6,93750,-14248.5
-18983.6,-15954.8,-18050.9,-26811.9,-12857.6,-8487.5,93750,-14259.1
-18985.2,-15949.8,-18055.2,-26815,-12862.9,-8487.4,93750,-14260.2
-18983.9,-15951.9,-18060,-26813.7,-12857.3,-8483.3,93750,-14256.3
-18983.3,-15957.1,-18061.7,-26811.1,-12851.2,-8481.6,93750,-14253.8
-18973.9,-15976.4,-18055.7,-26818.2,-12832.1,-8471,93750,-14244
-18962.4,-15988.5,-18045.3,-26832,-12815.1,-8464.4,93750,-14235.3
-18956.5,-15997.9,-18033.1,-26836.1,-12807.1,-8462.3,93750,-14232.2
-18960.8,-15998.1,-18029,-26823.6,-12810.7,-8465.9,93750,-14235.7
-18964.2,-15997.4,-18028.7,-26813,-12814.1,-8466.1,93750,-14237.7
-18965.1,-15995.9,-18039.2,-26803.1,-12814.4,-8461.3,93750,-14235.6
-18961.5,-15993.3,-18053.3,-26793.1,-12813.7,-8457.9,93750,-14232.9
-18959.2,-15993.5,-18051.1,-26790.3,-12814.9,-8460.2,93750,-14232.3
-18950,-15998.9,-18041.9,-26794.5,-12818,-8461.9,93750,-14233.7
-18947.9,-15999.9,-18037.8,-26797,-12819.4,-8463,93750,-14236.6
-18952.1,-15998.6,-18038.7,-26797.6,-12819.6,-8461.9,93750,-14236.7
-18954.4,-15996.1,-18042.6,-26798.6,-12819.4,-8463,93750,-14238.4
-18955.1,-15987.7,-18047,-26800.3,-12830.1,-8474.7,93750,-14251.3
-18956.3,-15980.7,-18045.7,-26805.7,-12839.3,-8478.3,93750,-14255.5
-18957.5,-15979.3,-18042.9,-26812.7,-12837.1,-8475,93750,-14250.9
-18960.8,-15975.7,-18045.5,-26815.9,-12830.2,-8472.6,93750,-14244.6
-18971.6,-15965.7,-18048.1,-26812.3,-12814.2,-8467,93750,-14232.6
-18969,-15969.1,-18040.9,-26808.5,-12811.6,-8464.5,93750,-14232.2
-18964.5,-15973.2,-18038.3,-26807.4,-12814.1,-8466.7,93750,-14235.1
-18962,-15973.7,-18038.7,-26806.9,-12817,-8467.8,93750,-14238
-18963.1,-15971,-18043.1,-26804.7,-12824.1,-8470.3,93750,-14243.1
-18964.9,-15970.5,-18041.7,-26805.2,-12828,-8470.5,93750,-14245
-18965,-15970.4,-18039.1,-26805,-12829.2,-8469.9,93750,-14244.3
-18967.3,-15974.4,-18038.7,-26803.1,-12830.2,-8466.8,93750,-14241.4
-18970.7,-15982.6,-18043.4,-26797.7,-12833.9,-8462.9,93750,-14236.8
-18975.5,-15979.9,-18043.1,-26799.9,-12831.8,-8463.3,93750,-14237.6
-18976.6,-15980.5,-18042.8,-26804.9,-12827.1,-8462.5,93750,-14236.5
-18977.5,-15978.5,-18044.3,-26806.2,-12828.6,-8467,93750,-14239.5
-18986.2,-15959.4,-18058.4,-26803.3,-12846.7,-8479.1,93750,-14251.9
-18988.4,-15954.6,-18068,-26808.1,-12851.9,-8480.6,93750,-14254.8
-18985.8,-15957.7,-18071.2,-26812.3,-12847.7,-8479.4,93750,-14253.8
-18979.8,-15966.3,-18073.9,-26815.6,-12840.1,-8474.1,93750,-14250.5
-18968.5,-15987.8,-18055.5,-26823.8,-12818.9,-8461.8,93750,-14240
-18960,-16001.5,-18036.3,-26827.8,-12801.5,-8456,93750,-14231.5
-18956.2,-16011.1,-18025.4,-26828.5,-12792.2,-8451.9,93750,-14226.9
-18958.6,-16009,-18028.2,-26823.3,-12792.3,-8450.2,93750,-14225.4
-18958.8,-16004.6,-18039.5,-26819.3,-12793.7,-8451.2,93750,-14225.8
-18959.4,-16002,-18042,-26813.7,-12797.1,-8453.5,93750,-14227.2
-18960.5,-15998.9,-18046.6,-26807.5,-12799.9,-8454.2,93750,-14228.3
-18959.4,-15998.7,-18051.5,-26807.5,-12800.6,-8451.7,93750,-14226.4
-18952.2,-16004.4,-18043.8,-26812.3,-12801.6,-8449.4,93750,-14224.6
-18950.7,-16004.8,-18028.6,-26815.8,-12801.4,-8448.9,93750,-14225.4
-18952.7,-16003.2,-18022.1,-26815.8,-12801.5,-8449.1,93750,-14224.3
-18954.6,-16001,-18020.7,-26812.3,-12802.7,-8452,93750,-14226.3
-18956.6,-15994.3,-18027.3,-26807.2,-12814.6,-8464.1,93750,-14239.1
-18962.6,-15989.7,-18037.3,-26805.9,-12825.3,-8468.2,93750,-14244.4
-18968,-15988.4,-18045.3,-26807.1,-12825.6,-8465.5,93750,-14242.7
-18974.2,-15983.8,-18048.3,-26806.5,-12820.1,-8462.6,93750,-14238.6
-18985.7,-15973.4,-18049,-26803.8,-12804.8,-8456.8,93750,-14227.4
-18977.6,-15974.4,-18042.3,-26801.5,-12801.5,-8453.7,93750,-14226.2
-18968.4,-15976.9,-18041.2,-26800.4,-12802.8,-8453.7,93750,-14228.5
-18963.1,-15977.1,-18040.2,-26801,-12803.8,-8453.7,93750,-14229.9
-18963,-15973.3,-18042.8,-26801.4,-12808.4,-8455.3,93750,-14232.9
-18965.6,-15971.9,-18044.9,-26805,-12811,-8458.4,93750,-14235.9
-18964.2,-15972.3,-18053.6,-26805.7,-12811.3,-8456.9,93750,-14235.3
-18966.6,-15978.1,-18054.4,-26807.3,-12812.9,-8456.8,93750,-14234.7
-18970.4,-15989,-18046.7,-26805.2,-12819.2,-8456.1,93750,-14233.2
-18973.7,-15986.5,-18036.6,-26806.1,-12820.6,-8460.1,93750,-14235.2
-18974.9,-15985.9,-18032.3,-26808,-12819.2,-8461.4,93750,-14235.8
-18974.9,-15981,-18036.2,-26805.6,-12819.5,-8460.3,93750,-14235.8
-18983.4,-15960,-18051.8,-26802.7,-12834.6,-8469.5,93750,-14245
-18985.9,-15957.9,-18059.8,-26810.3,-12839.1,-8472.2,93750,-14248
-18984.7,-15962.7,-18062.2,-26815.3,-12836.7,-8472.7,93750,-14248.3
-18983.5,-15970.2,-18065.2,-26820.5,-12832.9,-8471.9,93750,-14247.8
-18974.8,-15989.7,-18054.3,-26825.6,-12814.5,-8460.1,93750,-14237.6
-18967.8,-16002.5,-18039.6,-26825.1,-12799.1,-8453.6,93750,-14228.9
-18962.6,-16011.3,-18026.6,-26820.4,-12790.6,-8448.7,93750,-14223.9
-18960.8,-16010.2,-18023.7,-26811.9,-12791.4,-8449.1,93750,-14223.5
-18958.4,-16008.5,-18022.2,-26806.2,-12792.3,-8449.8,93750,-14223.7
-18958.9,-16007.5,-18024.5,-26806.4,-12793.5,-8450.7,93750,-14224.4
-18960.8,-16004.9,-18024.2,-26816.5,-12795.9,-8450,93750,-14224.8
-18964,-16003.8,-18027.8,-26826.5,-12797.7,-8446.8,93750,-14222.3
-18960.9,-16008.3,-18029.8,-26823.1,-12800.8,-8446.4,93750,-14221.4
-18960.5,-16008.2,-18030.6,-26813.7,-12800.8,-8447.9,93750,-14223.9
-18960.5,-16004.7,-18035.4,-26806.7,-12800.2,-8447.9,93750,-14223.3
-18958.2,-16000.8,-18037.2,-26802,-12799.7,-8449.3,93750,-14224.1
-18956.3,-15992.6,-18039,-26799.8,-12810.7,-8460.8,93750,-14236.3
-18959.8,-15987.3,-18034.7,-26802.7,-12821.4,-8466.7,93750,-14242.4
-18965.6,-15986.5,-18034.6,-26807.4,-12821.7,-8465.7,93750,-14242.2
-18972.9,-15982.1,-18051.5,-26808.4,-12816.2,-8462.4,93750,-14236.6
-18986.2,-15971.5,-18060.3,-26805.3,-12802,-8457.7,93750,-14225.7
-18979.6,-15973.6,-18048.4,-26806.5,-12800.8,-8456.7,93750,-14226.6
-18968.1,-15976.2,-18043.2,-26809.6,-12803.7,-8456.8,93750,-14229.3
-18962.3,-15977.6,-18039.9,-26808.3,-12804.9,-8455.6,93750,-14230.2
-18959.9,-15976.2,-18034.9,-26806.2,-12808.6,-8457.2,93750,-14232.9
-18957.7,-15977.4,-18039.3,-26806.8,-12810.2,-8457.2,93750,-14233.1
-18957.9,-15979.7,-18040.6,-26809.3,-12810.4,-8456.5,93750,-14232.3
-18965.4,-15986,-18038.7,-26812.2,-12812.6,-8457.1,93750,-14232.5
-18975.4,-15994,-18041.9,-26808.1,-12819.7,-8455.7,93750,-14232.2
-18979.6,-15989.8,-18038.8,-26809.2,-12821.9,-8459.1,93750,-14235.2
-18977.4,-15988.4,-18035.8,-26813.1,-12821.7,-8462,93750,-14238.2
-18974.6,-15982.9,-18035.2,-26813,-12823.1,-8462.3,93750,-14240.3
-18981.1,-15962.3,-18045.2,-26809.7,-12838.3,-8471.8,93750,-14250
-18980.3,-15958,-18052.3,-26812.7,-12842.8,-8474.5,93750,-14253.3
-18979,-15962.2,-18051.3,-26817.5,-12840,-8475.4,93750,-14252.8
-18976.6,-15971.4,-18049.3,-26824.3,-12836,-8474.5,93750,-14251.3
-18967.6,-15993.1,-18041.5,-26830.5,-12818,-8465.1,93750,-14242.5
-18959.8,-16006.9,-18034.7,-26829.7,-12803.4,-8460.1,93750,-14235.7
-18952.3,-16015.8,-18027.7,-26825.7,-12796.9,-8457.8,93750,-14232.5
-18949,-16013.8,-18025.9,-26818.5,-12799.5,-8458.1,93750,-14232.6
-18942.5,-16011.3,-18023,-26814.7,-12800.7,-8457.6,93750,-14232
-18938.7,-16010.3,-18022.1,-26811.7,-12800.9,-8456.3,93750,-14230.7
-18936.8,-16009.2,-18023.5,-26809.3,-12801.9,-8456.3,93750,-14230.4
-18936.4,-16010.8,-18024.4,-26812.1,-12804.7,-8458.6,93750,-14231.2
-18930.6,-16016.1,-18028.3,-26815.2,-12808.3,-8457.4,93750,-14230.1
-18932.9,-16016,-18037.1,-26812.4,-12809.1,-8456,93750,-14229.9
-18935.6,-16014.7,-18042.3,-26810.5,-12809,-8454.4,93750,-14229.1
-18934.7,-16012.7,-18036.8,-26810.6,-12809.1,-8457,93750,-14231.9
-18935.8,-16005.5,-18024.4,-26813.1,-12820.2,-8469.5,93750,-14245.1
-18938.1,-16002,-18015.6,-26818.8,-12828.1,-8473.1,93750,-14249.3
-18939.8,-16003.4,-18013.1,-26821.5,-12826.2,-8470.9,93750,-14246.8
-18944.5,-16001.8,-18016.2,-26822.3,-12820.3,-8469,93750,-14242.4
-18955.8,-15994,-18022.9,-26821.6,-12805,-8465.1,93750,-14232.9
-18950.1,-15996.6,-18024.2,-26821.4,-12804.1,-8463.2,93750,-14232.6
-18942.7,-15998.9,-18029.2,-26820.8,-12807.7,-8462.1,93750,-14234.4
-18937.4,-15998.5,-18035.3,-26818.5,-12810,-8461.2,93750,-14235.3
-18934.5,-15994.4,-18038.2,-26816.4,-12815.3,-8462.2,93750,-14237.2
-18933.1,-15993.3,-18032.9,-26816.4,-12817.3,-8462.6,93750,-14236.9
-18932.1,-15994.6,-18026.7,-26819,-12815.5,-8460.8,93750,-14234.7
-18933.4,-16000.8,-18024.5,-26821.1,-12815.4,-8460.6,93750,-14232.8
-18937.5,-16010,-18024.7,-26818.3,-12821.9,-8461.2,93750,-14232.5
-18939.9,-16006,-18022.2,-26820.3,-12825.4,-8467.2,93750,-14237.8
-18942.3,-16004.7,-18020.7,-26824.3,-12827.6,-8472.2,93750,-14242.6
-18945.1,-16000.6,-18019.7,-26823.7,-12830.7,-8474,93750,-14246.1
-18953.1,-15980.6,-18029.4,-26818.6,-12847.5,-8482.2,93750,-14255.6
-18951.3,-15977.3,-18035.1,-26822.9,-12851.4,-8481.8,93750,-14256.8
-18946.5,-15980.7,-18038.9,-26827.7,-12846.1,-8478.1,93750,-14252.9
-18946.2,-15988.3,-18036.1,-26831.5,-12838.9,-8473.8,93750,-14248.8
-18941.6,-16009.6,-18022.9,-26838,-12818.6,-8462.7,93750,-14238.5
-18935.5,-16025.4,-18012.6,-26841.1,-12802.3,-8458.3,93750,-14231.8
-18926.3,-16036.6,-18012.3,-26836.9,-12793.6,-8454.1,93750,-14227.6
-18922.1,-16036.1,-18016.5,-26827.8,-12796.6,-8456.3,93750,-14228.6
-18918.3,-16034.6,-18013.6,-26823.2,-12800.6,-8457.1,93750,-14229.6
-18915.3,-16034.8,-18013.5,-26820.9,-12801.8,-8454.9,93750,-14228.4
-18913.9,-16034.8,-18011.9,-26820.5,-12801.6,-8453,93750,-14226.9
-18912.5,-16034.3,-18009.8,-26822,-12801.9,-8452.4,93750,-14225
-18903.2,-16039.9,-18006.5,-26828.5,-12803.8,-8451.6,93750,-14223.7
-18899.7,-16040,-18007.1,-26828.8,-12802.6,-8452.2,93750,-14225.8
-18905.6,-16037.6,-18016.6,-26826.1,-12801.8,-8452.6,93750,-14225.9
-18908.9,-16034.3,-18026.9,-26824.1,-12800.5,-8450.8,93750,-14225.4
-18913.6,-16025.1,-18034.2,-26823,-12809.5,-8460.3,93750,-14236.2
-18919.7,-16019.2,-18029.3,-26823.2,-12818.2,-8465.7,93750,-14242.2
-18921.4,-16019.1,-18022.6,-26824.5,-12817.9,-8467.2,93750,-14241.9
-18924.1,-16016.4,-18020,-26823.6,-12812.8,-8465,93750,-14236.9
-18937,-16007,-18019.5,-26820.5,-12798.2,-8460.2,93750,-14225.4
-18932.2,-16010.2,-18015.1,-26819.5,-12796.2,-8456.3,93750,-14224.2
-18925.9,-16014.9,-18014,-26822.3,-12798.4,-8455.3,93750,-14225.8
-18925,-16016.7,-18009,-26825.6,-12801.6,-8455.4,93750,-14227.9
-18926.3,-16013.1,-18006.6,-26827.4,-12808.6,-8458.1,93750,-14231.8
-18927.4,-16011.7,-18007,-26829.7,-12812.9,-8460.1,93750,-14234.1
-18924.2,-16012.7,-18004.3,-26830.8,-12813,-8458.8,93750,-14232.9
-18925.1,-16016.2,-18010.5,-26827.1,-12813.1,-8454,93750,-14228.5
-18928.5,-16023.6,-18019.8,-26818.5,-12816,-8448.1,93750,-14222.3
-18930.8,-16021.3,-18021.7,-26818.9,-12815.7,-8451.6,93750,-14224.1
-18930.7,-16022.1,-18021.4,-26822.8,-12814,-8454.1,93750,-14227.5
-18930.2,-16018.3,-18019.9,-26824.3,-12815.6,-8459.2,93750,-14233
-18937.9,-15998.8,-18026.1,-26822.5,-12832.9,-8473.6,93750,-14247.9
-18938.7,-15994.4,-18029.6,-26827,-12838.5,-8477,93750,-14253.2
-18938.8,-15996.9,-18027.7,-26831.7,-12836.7,-8476.8,93750,-14253.5
-18937.2,-16003.5,-18024.1,-26836.5,-12831.2,-8471.8,93750,-14250.2
-18927.6,-16023.1,-18014,-26841.1,-12810.8,-8457.5,93750,-14237.1
-18922,-16035.1,-18007.3,-26841.6,-12793.3,-8448.9,93750,-14225.3
-18916.3,-16043.3,-18006.3,-26840.6,-12783.5,-8443.4,93750,-14218.7
-18915.3,-16041.6,-18010.1,-26835.5,-12784,-8443.2,93750,-14217.6
-18913.4,-16040.7,-18010.8,-26834.2,-12785.6,-8444.1,93750,-14218.4
-18914.3,-16041.3,-18014.2,-26833.1,-12788.5,-8444.8,93750,-14219.2
-18918.2,-16039.4,-18016.5,-26828.7,-12791.2,-8443.2,93750,-14219.6
-18923,-16039.7,-18015.2,-26828.6,-12792.3,-8442.2,93750,-14217.5
-18916.7,-16045.5,-18008.8,-26830.3,-12793.6,-8440.9,93750,-14215.7
-18914.1,-16045.6,-18000.4,-26827.2,-12791.7,-8440,93750,-14216.3
-18918.4,-16042.5,-17998.4,-26822.8,-12792.2,-8442.2,93750,-14217.9
-18918.6,-16039.5,-17997.9,-26820.8,-12793.5,-8445.9,93750,-14221.4
-18919.2,-16031.1,-18001,-26819.9,-12804.3,-8457.9,93750,-14234.1
-18923.5,-16026.2,-18009.2,-26824.1,-12813.8,-8462.5,93750,-14239.8
-18926.2,-16024.9,-18022.4,-26824.2,-12813.8,-8459.5,93750,-14237.9
-18931.2,-16020.8,-18027.5,-26825.1,-12808.1,-8456.2,93750,-14232.7
-18941.3,-16011.6,-18022.9,-26825.8,-12792.7,-8451.5,93750,-14222.5
-18937.9,-16011.9,-18016.1,-26823.3,-12789.4,-8446.7,93750,-14219.6
-18935.7,-16013.2,-18010.2,-26821.7,-12790.4,-8446,93750,-14220.4
-18932,-16014,-18006.1,-26820.1,-12793.5,-8448.3,93750,-14223
-18928.6,-16011.5,-18010,-26817.3,-12800.1,-8451.5,93750,-14227.1
-18928.7,-16011.5,-18012.7,-26820.3,-12804.7,-8454.1,93750,-14229.9
-18929.7,-16012.7,-18009.4,-26828.1,-12806.4,-8454.7,93750,-14230.4
-18932.9,-16018.1,-18009.2,-26831.5,-12809,-8454.5,93750,-14229.7
-18936.9,-16026.4,-18013.5,-26825.4,-12814,-8450.7,93750,-14225.8
-18939.9,-16022.3,-18012.9,-26823.7,-12814.1,-8451.2,93750,-14225.8
-18940.2,-16022.2,-18014.4,-26825,-12810.8,-8450.2,93750,-14224.2
-18940.3,-16018.2,-18019.3,-26824.1,-12810.1,-8450.1,93750,-14224.3
-18949.9,-15998.4,-18029.5,-26822.6,-12825.2,-8460.6,93750,-14234.8
-18953.5,-15995.1,-18029.2,-26830.6,-12831.1,-8465.6,93750,-14240.3
-18953.8,-15999.5,-18028.9,-26836.4,-12829.2,-8467.9,93750,-14242.6
-18950.3,-16007.3,-18034.4,-26838.4,-12825.1,-8466,93750,-14243.3
-18940.9,-16027.2,-18025.5,-26843.3,-12806.5,-8454.3,93750,-14234.2
-18932.8,-16040.3,-18012.7,-26844.4,-12790.3,-8448.2,93750,-14226.6
-18924,-16048.9,-17999.4,-26840.7,-12781,-8443.8,93750,-14221.5
-18922.8,-16047.8,-17993.7,-26832.3,-12783.7,-8445.1,93750,-14219.8
-18921.2,-16045.1,-17992,-26827.6,-12787.8,-8446.8,93750,-14219.6
-18922.5,-16044.5,-17994.5,-26825.2,-12790.2,-8445.8,93750,-14218.7
-18926.1,-16044.3,-17999.3,-26824,-12792.9,-8446.1,93750,-14219.1
-18929.6,-16045.7,-18005.7,-26824.5,-12796.2,-8448.5,93750,-14220.5
-18921.6,-16050.2,-18009.8,-26824,-12798.5,-8445.9,93750,-14219.5
-18917.1,-16050.4,-18008.2,-26822.3,-12797.9,-8444.9,93750,-14220.8
-18915.8,-16048.7,-18001.2,-26822.5,-12797.5,-8445.9,93750,-14222.2
-18913.4,-16045.9,-18000,-26822.7,-12795.4,-8447.2,93750,-14223.4
-18912.8,-16034.7,-18013.6,-26821.7,-12801.8,-8453.6,93750,-14231.4
-18918.7,-16028.4,-18020.7,-26825.5,-12809,-8456.2,93750,-14233.9
-18924.4,-16028.8,-18024.1,-26828.1,-12808.5,-8455.7,93750,-14232.5
-18934.2,-16026.4,-18021.7,-26829.1,-12804.9,-8455.9,93750,-14230.2
-18949.7,-16017.4,-18019.7,-26826.7,-12792.6,-8453.6,93750,-14222.6
-18943.3,-16019.1,-18019.2,-26822.7,-12792.1,-8449.9,93750,-14222.2
-18935.5,-16021.5,-18012.8,-26822,-12795.4,-8449.8,93750,-14225.1
-18929.1,-16020.2,-18007.5,-26820.8,-12798.1,-8450.1,93750,-14227
-18925.3,-16015.3,-18004.7,-26820.6,-12803.2,-8451.3,93750,-14228.9
-18926.2,-16015.1,-18001.2,-26825.4,-12805.5,-8453.2,93750,-14230.7
-18926.9,-16015.4,-18002.6,-26827.4,-12805.2,-8453.3,93750,-14231
-18929.2,-16020.5,-18009.6,-26828.5,-12805.9,-8453.5,93750,-14231.1
-18934.3,-16030.5,-18015.9,-26824.9,-12812.3,-8453.9,93750,-14230.6
-18936.5,-16027.2,-18013.1,-26826.2,-12813.6,-8456.7,93750,-14233.8
-18932.8,-16027.2,-18007.6,-26832.1,-12812.7,-8458.6,93750,-14236.4
-18929.4,-16024.8,-18003.5,-26832.1,-12814.4,-8459.4,93750,-14238.3
-18937.2,-16006.3,-18014.1,-26826.4,-12830.5,-8466.6,93750,-14245.8
-18939.7,-16002.6,-18019.3,-26828.6,-12834.9,-8467.1,93750,-14246
-18942.2,-16005.9,-18021,-26831.3,-12830.7,-8466.3,93750,-14244.3
-18945,-16012.5,-18022.4,-26834.5,-12824.8,-8465.1,93750,-14243.2
-18938.9,-16032.2,-18017.4,-26841.2,-12805.4,-8454.7,93750,-14234.1
-18931.8,-16044.3,-18011.9,-26842.8,-12789.8,-8448.2,93750,-14226.1
-18924.6,-16053.6,-18002.1,-26845.1,-12782.8,-8445.4,93750,-14222.5
-18920.7,-16052.5,-17996.5,-26840.1,-12784,-8444.6,93750,-14222.1
-18916.9,-16049.6,-17993.4,-26833.4,-12786,-8445,93750,-14221.7
-18913.4,-16047.3,-17992.8,-26827.8,-12787.6,-8443.8,93750,-14220.2
-18913,-16044.4,-17996.8,-26823.7,-12788.8,-8443.5,93750,-14219.1
-18918.3,-16044,-18001.4,-26822.4,-12789.2,-8443.5,93750,-14217.1
-18918.5,-16049.8,-18003.9,-26824.6,-12791,-8445,93750,-14217.3
-18918.3,-16051.3,-18007.6,-26824.6,-12792.1,-8446.5,93750,-14219.9
-18921.4,-16049.4,-18008.6,-26821.9,-12793.5,-8445.4,93750,-14218.8
-18921,-16046.9,-18003.4,-26820.5,-12794.1,-8446.5,93750,-14220.5
-18918.6,-16039.1,-17999.1,-26821.7,-12802.7,-8454.8,93750,-14231.1
-18917.1,-16033.5,-18006.6,-26824.7,-12807.9,-8455.3,93750,-14233.3
-18919.3,-16032.5,-18009.3,-26826.6,-12804.6,-8452.8,93750,-14229.6
-18928.6,-16029.7,-18002.2,-26830.1,-12799.1,-8453.7,93750,-14226.2
-18942.9,-16020.7,-18000.9,-26830.2,-12785.2,-8452,93750,-14217.5
-18939.7,-16022,-17999.4,-26829.2,-12785.8,-8451.2,93750,-14219.1
-18935.3,-16023.2,-17997.6,-26827.7,-12791.5,-8452.5,93750,-14223.6
-18934,-16021.7,-17997.8,-26825.1,-12795.2,-8450.4,93750,-14224.7
-18934.8,-16018.2,-17998.3,-26821.8,-12800.7,-8449.9,93750,-14225.4
-18936,-16017.2,-17998.6,-26820.5,-12802.1,-8449.6,93750,-14224.5
-18936.4,-16017.8,-17999.2,-26819.9,-12799.1,-8446.6,93750,-14221.9
-18936.6,-16022.7,-18006.4,-26820.2,-12797.4,-8443.2,93750,-14218.6
-18936.4,-16030.5,-18021.2,-26815.1,-12801.1,-8439.6,93750,-14215.3
-18939.7,-16026.5,-18025.7,-26814.9,-12802.4,-8444.2,93750,-14219.2
-18943.9,-16026.8,-18019.8,-26819.7,-12803.9,-8449.5,93750,-14224.1
-18944.6,-16023.5,-18014.6,-26819.4,-12807.5,-8451.9,93750,-14227.6
-18951.7,-16004.1,-18018.1,-26816.9,-12824.9,-8462.8,93750,-14238.7
-18949.3,-16000.6,-18022,-26822.8,-12829.9,-8465.4,93750,-14242.1
-18943.9,-16004.2,-18020.5,-26827.1,-12826.2,-8462.7,93750,-14239.3
-18940,-16011,-18017.6,-26829.6,-12821.2,-8462,93750,-14236.7
-18930.7,-16032,-18007.8,-26834.7,-12802.3,-8452.4,93750,-14226.6
-18922.6,-16046.9,-18001,-26835.8,-12785.8,-8446.4,93750,-14219.1
-18917.7,-16056.3,-17996.7,-26834.8,-12778.4,-8442.9,93750,-14216
-18918.9,-16055.4,-17997.4,-26830.4,-12781.5,-8443.4,93750,-14216.5
-18915.6,-16052.2,-17999.8,-26826.4,-12782.9,-8442.1,93750,-14215.9
-18914,-16049.3,-17996.6,-26821.1,-12784.4,-8441.8,93750,-14216.1
-18913,-16046.6,-17989.1,-26817.5,-12787.6,-8443.6,93750,-14217.9
-18911.5,-16045.9,-17985.8,-26816.6,-12789.4,-8444.2,93750,-14217.3
-18903.5,-16050,-17984.4,-26822.2,-12791.2,-8445,93750,-14217.6
-18902.6,-16049.4,-17982.8,-26822.5,-12791.4,-8445.4,93750,-14219
-18909.5,-16047.2,-17987.6,-26819.2,-12792.1,-8445.2,93750,-14218.9
-18915.7,-16044.4,-18000.5,-26814.9,-12792,-8443.3,93750,-14218.5
-18921.8,-16036.2,-18009.5,-26812.5,-12801.1,-8451.7,93750,-14228.2
-18928.8,-16030.6,-18007.8,-26814.8,-12808.6,-8454.6,93750,-14231.2
-18931.5,-16030.6,-18008.4,-26816.9,-12805.4,-8450,93750,-14226.3
-18936.5,-16026.6,-18014.2,-26817,-12796.7,-8446,93750,-14218.5
-18948.4,-16015.7,-18017.1,-26816.1,-12780.4,-8441.8,93750,-14207.5
-18944.5,-16018,-18005.5,-26820,-12778.5,-8441.3,93750,-14208.5
-18939.8,-16021.1,-17995.6,-26825.3,-12782.6,-8444,93750,-14212.9
-18935.4,-16021.9,-17991.8,-26825.9,-12788.3,-8446.1,93750,-14216.9
-18934,-16019.3,-17995.3,-26823.5,-12797.6,-8448.6,93750,-14222.1
-18932.6,-16018.3,-17994.4,-26821,-12803.3,-8449.8,93750,-14224.1
-18932.5,-16019.1,-17995.4,-26817.6,-12803.5,-8449.1,93750,-14223.6
-18933.1,-16024.8,-18003.8,-26812.1,-12802.4,-8445.7,93750,-14219.7
-18934.4,-16033.8,-18011.5,-26803.9,-12805.3,-8441,93750,-14214.2
-18937.1,-16030.5,-18014.4,-26804.5,-12804.5,-8444.2,93750,-14215.7
-18938.6,-16028.6,-18015.5,-26806.8,-12802.9,-8446,93750,-14217.9
-18941.1,-16023.2,-18017.1,-26808,-12805.1,-8449.4,93750,-14221.3
-18952.3,-16002.5,-18022.4,-26807.2,-12823.8,-8463.1,93750,-14234.7
-18955.1,-15997,-18025.3,-26813.3,-12831.3,-8467.9,93750,-14240.1
-18953.7,-15999.7,-18025.9,-26820,-12828.6,-8466.6,93750,-14239.7
-18950.7,-16006.8,-18023.8,-26825.4,-12821.2,-8460.4,93750,-14235.2
-18940.1,-16028,-18010,-26832.5,-12799.8,-8446.7,93750,-14222.1
-18932.6,-16043,-17999.4,-26834.4,-12781.2,-8439.9,93750,-14212.1
-18927.7,-16054.3,-17990,-26833.3,-12771.7,-8435.7,93750,-14206.9
-18930.5,-16055.6,-17985.5,-26827.8,-12774.1,-8437.9,93750,-14207.5
-18930.9,-16055,-17980.9,-26824.1,-12777.5,-8440.8,93750,-14211.1
-18932.1,-16053.4,-17984.2,-26818.8,-12781,-8441.5,93750,-14213.3
-18931.6,-16050.4,-17990.4,-26813.6,-12784.1,-8440.7,93750,-14213.6
-18929.3,-16050.5,-17991.7,-26811.4,-12786.7,-8441.8,93750,-14213.2
-18919.9,-16054.6,-17992,-26811.7,-12789,-8439.6,93750,-14211.5
-18914.6,-16053.2,-17996.7,-26810,-12787.1,-8436.8,93750,-14210
-18915.4,-16052.1,-17992.5,-26811.8,-12786.9,-8439.4,93750,-14210.4
-18916.8,-16049.6,-17989.5,-26812.1,-12788.7,-8442.1,93750,-14213.3
-18919.1,-16041,-17992.4,-26813.2,-12799.7,-8452.5,93750,-14224.6
-18926.2,-16035.1,-17998,-26818.2,-12809.2,-8457.1,93750,-14229.3
-18932.9,-16033.1,-18002,-26818.7,-12809.7,-8455.4,93750,-14227.5
-18940.7,-16029.2,-18004.6,-26817.3,-12805.4,-8453.1,93750,-14223.2
-18953.3,-16019.7,-18007.3,-26815.5,-12789.9,-8446.4,93750,-14210.7
-18946.4,-16021.8,-18004,-26812.3,-12785.9,-8443,93750,-14208.8
-18937.3,-16024.3,-18002.8,-26809.8,-12785.8,-8442.8,93750,-14211.3
-18935.3,-16025.7,-18002.6,-26809.9,-12785.7,-8441.9,93750,-14212.9
-18936.9,-16023.7,-18005.9,-26809,-12790.1,-8443,93750,-14215.9
-18942.1,-16022.9,-18007.4,-26810.8,-12793.1,-8444.8,93750,-14217.9
-18943.8,-16023.9,-18004.9,-26813.1,-12794.9,-8447.3,93750,-14219.8
-18944.2,-16028.9,-18005.4,-26813.1,-12799,-8447.6,93750,-14220.3
-18947,-16037.3,-18008.8,-26806.6,-12805.4,-8445.1,93750,-14217.4
-18946.1,-16032.9,-18004.5,-26806.8,-12806.8,-8446.9,93750,-14219.3
-18943.6,-16032.1,-17998.3,-26815.3,-12804.4,-8446.6,93750,-14220.1
-18943.4,-16028.8,-17997.8,-26820.9,-12803.2,-8446.2,93750,-14220.3
-18953.3,-16009.1,-18009.2,-26820.8,-12818.1,-8456.4,93750,-14230.3
-18958,-16006.1,-18009.4,-26826.7,-12824.2,-8460.6,93750,-14234.6
-18961.6,-16011,-18007.4,-26831.6,-12823.1,-8462.5,93750,-14236.1
-18961,-16017.6,-18012.6,-26833.8,-12818.5,-8460.7,93750,-14236
-18951.7,-16035.9,-18010.4,-26835.8,-12799.1,-8447.9,93750,-14225.4
-18942.9,-16048.9,-18003.7,-26833.2,-12781.9,-8439.2,93750,-14216.1
-18934.5,-16058.6,-17998.2,-26828.4,-12771.8,-8432.7,93750,-14209.9
-18932.2,-16057.3,-17995.2,-26818.7,-12772.1,-8432.8,93750,-14208.9
-18933.2,-16054.8,-17991.8,-26813.3,-12773.7,-8434.9,93750,-14210.3
-18937.2,-16054.2,-17988.9,-26811.3,-12774.8,-8435.5,93750,-14211.9
-18941.1,-16054.3,-17987.3,-26811.7,-12777.1,-8435.8,93750,-14213.9
-18942.2,-16056,-17989.2,-26815.3,-12780.4,-8437.2,93750,-14214.5
-18934.1,-16061.9,-17984.6,-26820.2,-12784.6,-8436.4,93750,-14213.6
-18930.4,-16061.9,-17982.9,-26818.6,-12787.3,-8436.4,93750,-14214.3
-18931.9,-16057.7,-17987,-26813.2,-12787.4,-8435.4,93750,-14212.4
-18929.3,-16052,-17985.1,-26808.1,-12786.8,-8437.1,93750,-14212.4
-18928.2,-16042.1,-17993.7,-26805,-12796.4,-8447.7,93750,-14223.1
-18933.1,-16036.1,-18005.6,-26807.8,-12803.3,-8448.2,93750,-14224.6
-18940.5,-16036.4,-18004.7,-26812.4,-12803.4,-8449.1,93750,-14223.6
-18949.2,-16032.5,-18005.5,-26813.8,-12801.6,-8450.2,93750,-14220.8
-18959.8,-16020.4,-18013.9,-26812.2,-12788,-8444.2,93750,-14209.9
-18953.3,-16020.2,-18012.3,-26812.4,-12786.2,-8441.3,93750,-14210.3
-18946.6,-16021.4,-18002.9,-26812.8,-12789.9,-8441.2,93750,-14212.5
-18942.3,-16021.7,-17992.6,-26812.1,-12792.4,-8441.5,93750,-14213.9
-18939.9,-16018.9,-17988.1,-26810.1,-12796.7,-8442.3,93750,-14216.1
-18939.9,-16018.9,-17991,-26810.2,-12797.9,-8442.4,93750,-14216
-18942.9,-16020.6,-17996.8,-26810.2,-12797.7,-8443.2,93750,-14216
-18947.1,-16024.5,-18006.9,-26809.9,-12798.9,-8442.2,93750,-14215.3
-18952.6,-16031.8,-18011.6,-26805.4,-12805.1,-8441.1,93750,-14214.3
-18955.8,-16028.9,-18009.7,-26802.9,-12807.3,-8446.4,93750,-14219.7
-18954.5,-16029.8,-18008.2,-26803.4,-12806.5,-8446.4,93750,-14221.5
-18955.5,-16025.9,-18004.1,-26802,-12809,-8447.5,93750,-14222.9
-18965.8,-16003.9,-18002.7,-26797.3,-12824.9,-8456.2,93750,-14231.6
-18968.8,-15998.3,-18000.5,-26804.8,-12829.2,-8460.8,93750,-14235.5
-18968.4,-16000.3,-17997.9,-26815.1,-12825.5,-8462.4,93750,-14236.3
-18965.1,-16007.5,-17997.6,-26824.6,-12820.1,-8461.3,93750,-14236.2
-18956.5,-16027.9,-17989.5,-26832.8,-12801.9,-8451.1,93750,-14228.5
-18949.9,-16041,-17986.4,-26833.1,-12786.8,-8445.2,93750,-14221.3
-18939.5,-16048.5,-17987.8,-26826.9,-12777.4,-8438.7,93750,-14215.8
-18936.6,-16046.4,-17990.4,-26819.1,-12777.8,-8435.9,93750,-14213.4
-18933.9,-16041.5,-17986,-26813.7,-12778.8,-8435.3,93750,-14210.6
-18933.1,-16039.4,-17985.8,-26810.5,-12778.8,-8433.9,93750,-14208.2
-18936.2,-16039,-17989.4,-26808,-12779,-8432.7,93750,-14207.3
-18938.1,-16039.5,-17995.3,-26805.7,-12780.6,-8433.3,93750,-14207
-18932.6,-16043.4,-17997.6,-26804.5,-12783.4,-8435.4,93750,-14209.2
-18934,-16042.6,-17992.3,-26801.9,-12786.5,-8441.4,93750,-14216.2
-18937.8,-16039.5,-17982.9,-26799.4,-12789.3,-8444.5,93750,-14219.4
-18940.4,-16035.8,-17974.8,-26797.3,-12791.3,-8446.9,93750,-14222.3
-18941.7,-16025.8,-17974.1,-26793.9,-12803.3,-8457.2,93750,-14233.4
-18944.9,-16018.9,-17977.5,-26793.6,-12810.8,-8457,93750,-14234.5
-18945.7,-16018.4,-17981.2,-26796.1,-12808.5,-8453.8,93750,-14230
-18950.7,-16014.2,-17990,-26795.6,-12803.6,-8451.9,93750,-14224.7
-18965.2,-16003.2,-17999.5,-26793.9,-12789.2,-8448.8,93750,-14214.2
-18963.4,-16003.1,-17998.8,-26793.3,-12788.3,-8448.1,93750,-14214.5
-18960.5,-16002.7,-18000.4,-26792.4,-12792.3,-8448.4,93750,-14217.8
-18958.9,-16000.6,-17998.2,-26791.5,-12795.8,-8447.9,93750,-14219.5
-18958.8,-15996.7,-17991.3,-26789.4,-12801.8,-8448.6,93750,-14221.5
-18960.6,-15996.1,-17982.4,-26790.9,-12802.9,-8447.6,93750,-14221.4
-18962.4,-15996.3,-17981.1,-26791,-12799.8,-8444.6,93750,-14218.9
-18963.2,-16000.5,-17990.1,-26792.1,-12799.2,-8442.3,93750,-14215.5
-18966.7,-16009.8,-17993.6,-26789.8,-12803.9,-8442.1,93750,-14213.3
-18971.9,-16007.7,-17990.5,-26793.4,-12806.2,-8448.1,93750,-14218.8
-18972,-16008.3,-17991.1,-26797.3,-12805.5,-8448.8,93750,-14221
-18972.1,-16004.2,-17994.7,-26798.8,-12807.3,-8449.6,93750,-14223.5
-18981.6,-15981.4,-18006.8,-26793.9,-12823.3,-8458.4,93750,-14233.7
-18983.3,-15975.5,-18009.7,-26795.3,-12828,-8459.8,93750,-14235.8
-18982.6,-15978.7,-18006.5,-26796.9,-12823.9,-8459.8,93750,-14234.5
-18981.7,-15984.4,-18000.8,-26799.6,-12818.1,-8458.8,93750,-14232.9
-18975.1,-16003.8,-17990.1,-26806.5,-12799,-8450.1,93750,-14223.6
-18967.6,-16016.7,-17982.9,-26809.4,-12783.8,-8444.4,93750,-14215.2
-18963.2,-16026,-17983.4,-26808.1,-12777,-8440.4,93750,-14210.9
-18962.9,-16025.4,-17988.5,-26799,-12779.8,-8439,93750,-14210.2
-18961,-16024,-17990.6,-26794.4,-12781.4,-8437.3,93750,-14209.5
-18960.5,-16024.2,-17982.3,-26793.7,-12782.9,-8437.6,93750,-14210.2
-18956.8,-16022.4,-17981,-26791,-12784,-8437.6,93750,-14210.1
-18951.9,-16021.7,-17988.4,-26787.7,-12783.6,-8435.8,93750,-14208.1
-18946.4,-16026.7,-17989.2,-26788.3,-12783.7,-8435.1,93750,-14208.7
-18949.4,-16027.1,-17987.2,-26786.9,-12783.1,-8436,93750,-14211.8
-18956.4,-16025.9,-17986.4,-26785.9,-12784.3,-8437.9,93750,-14213.4
-18962,-16023.8,-17984.8,-26784.9,-12786.4,-8441.4,93750,-14217.3
-18965.8,-16015.1,-17984.1,-26782.2,-12798,-8452.5,93750,-14230.8
-18970,-16008.4,-17987.2,-26783,-12807.1,-8455.7,93750,-14234.6
-18973.3,-16005.8,-17986.1,-26785.3,-12805.4,-8452.5,93750,-14230.7
-18981.5,-15999.7,-17986.1,-26787.6,-12799.3,-8449.9,93750,-14224.3
-18994.3,-15989.1,-17989,-26788.5,-12783.8,-8443.8,93750,-14210.8
-18987.5,-15991.2,-17990.6,-26789.2,-12781.3,-8439.2,93750,-14207.9
-18980.3,-15993.3,-17996.7,-26789.6,-12782.9,-8436.5,93750,-14208.7
-18976.9,-15994.4,-18003.5,-26788.7,-12786.1,-8436.8,93750,-14210.5
-18974.7,-15993.4,-18010,-26786.6,-12793.1,-8439.8,93750,-14214.3
-18973.8,-15992.3,-18009.8,-26786.6,-12797.6,-8442.9,93750,-14217.3
-18971.7,-15992.4,-18000.3,-26789.1,-12800,-8444.6,93750,-14219.4
-18969.1,-15997.2,-17992.4,-26791.2,-12800.9,-8444.2,93750,-14218.7
-18969.4,-16007.3,-17991.4,-26788.2,-12804.9,-8441.9,93750,-14215.6
-18970.1,-16005.5,-17991.2,-26791.3,-12804.7,-8445.1,93750,-14217.6
-18966.4,-16004.8,-18001.9,-26798,-12801.2,-8443.3,93750,-14217.1
-18966.6,-15999.8,-18009.7,-26800.4,-12802.1,-8446,93750,-14219.1
-18980.7,-15979.3,-18021.5,-26795,-12820.6,-8458.1,93750,-14230.8
-18988.3,-15976.4,-18025.4,-26797.3,-12826.2,-8458.4,93750,-14232.9
-18990.3,-15981.4,-18022.1,-26800.4,-12823.2,-8457.5,93750,-14231.7
-18988.1,-15988.4,-18011.5,-26803.5,-12819.1,-8456.5,93750,-14230.4
-18978.7,-16007.7,-17992.7,-26810,-12800.9,-8446.6,93750,-14220.5
-18969.6,-16020.8,-17984.1,-26810.9,-12785.3,-8440.7,93750,-14212.6
-18959.7,-16029.7,-17982.8,-26806.6,-12776.4,-8435.4,93750,-14207.5
-18960.3,-16029,-17983.9,-26801,-12777.6,-8434.9,93750,-14207.3
-18963.7,-16027,-17985.3,-26800.2,-12779.8,-8435,93750,-14208.7
-18966.5,-16024.4,-17991.9,-26797.6,-12782,-8435.1,93750,-14209.7
-18967.7,-16020.5,-17997.5,-26792.1,-12783.4,-8433.8,93750,-14209.2
-18968.4,-16019.7,-17999,-26788.8,-12784.5,-8433.2,93750,-14208.1
-18962,-16025,-17994.3,-26789.4,-12785.3,-8433.1,93750,-14208
-18959.7,-16026.3,-17990.3,-26786.2,-12783.3,-8433.2,93750,-14210.2
-18961.8,-16025.7,-17988.9,-26785.6,-12781.3,-8431.5,93750,-14208.5
-18961.5,-16024.5,-17987.6,-26787.9,-12781.4,-8434.5,93750,-14210.3
-18960.6,-16016.8,-17993.1,-26791.3,-12792.8,-8446.2,93750,-14222.8
-18963.2,-16011.6,-17999.4,-26798.9,-12803.6,-8450.3,93750,-14227.4
-18965.8,-16010.7,-17999.5,-26804.8,-12804.6,-8449.4,93750,-14226.3
-18972.9,-16005.8,-18000.6,-26804.5,-12800.2,-8447.1,93750,-14222.3
-18985.7,-15992.4,-18003.1,-26796.8,-12785.8,-8442.7,93750,-14212
-18979.4,-15991.4,-17999.3,-26792.6,-12783,-8438.7,93750,-14210.2
-18970,-15993.7,-17997.1,-26795.4,-12783.3,-8437.7,93750,-14210.7
-18963.8,-15996.3,-18002.7,-26796.4,-12784.7,-8437,93750,-14211
-18962.5,-15994.6,-18011.4,-26791.2,-12788.5,-8437.4,93750,-14212.3
-18966.8,-15994.4,-18016.6,-26791,-12790.9,-8440.7,93750,-14214.6
-18970.4,-15996.2,-18009.5,-26795.2,-12792.8,-8443.1,93750,-14217.3
-18973.9,-16002.7,-18005.1,-26799.4,-12795.3,-8442.3,93750,-14216.6
-18975.8,-16011.4,-18002.6,-26796.8,-12800.9,-8439.8,93750,-14213.6
-18977.4,-16006.3,-17998.8,-26797.9,-12801.6,-8442.4,93750,-14216
-18977.2,-16003.6,-17993.4,-26799.6,-12798.8,-8442.7,93750,-14217.1
-18980.2,-15998.8,-17986.4,-26797.8,-12800.2,-8447.5,93750,-14221.3
-18990.6,-15979.5,-17991.5,-26795.2,-12817.6,-8459.4,93750,-14233.9
-18991.9,-15976.1,-18000.4,-26803.2,-12823.3,-8462,93750,-14237.6
-18993.5,-15979.9,-18005.4,-26806.3,-12822,-8464,93750,-14238.7
-18991.1,-15984.4,-18005,-26805.6,-12819.5,-8464.5,93750,-14239.7
-18980.4,-16001,-17995.2,-26808.8,-12802,-8454,93750,-14231.4
-18969.9,-16013.5,-17987.9,-26810.6,-12785.6,-8445.3,93750,-14221.3
-18960.8,-16023.1,-17982.2,-26808.8,-12775.6,-8438.2,93750,-14213.2
-18959,-16022.1,-17985,-26801.3,-12775,-8435.4,93750,-14209.2
-18958.3,-16021.9,-17984.6,-26799.7,-12775.6,-8435,93750,-14207.9
-18958.4,-16020.1,-17985.9,-26798.4,-12777.8,-8435.8,93750,-14207.8
-18959.1,-16016.6,-17991.7,-26795.3,-12782,-8437.1,93750,-14208.9
-18961.8,-16016.9,-17997.9,-26794.1,-12785.9,-8437.4,93750,-14209.2
-18955.8,-16022.6,-18001.1,-26792.4,-12788.6,-8433.8,93750,-14206.9
-18953.4,-16022.2,-18001.9,-26788.9,-12788.8,-8433.2,93750,-14206.9
-18952.1,-16019,-18007,-26784,-12789.1,-8432.8,93750,-14205.7
-18951.1,-16015.4,-18002.2,-26779.6,-12790.1,-8434.2,93750,-14206.8
-18954.2,-16007.1,-17993.8,-26780.6,-12801.1,-8446,93750,-14219.7
-18962.1,-16002.4,-17989.1,-26788.4,-12809.7,-8450.7,93750,-14225.3
-18970.4,-16001.4,-17990.8,-26795,-12809.3,-8449.9,93750,-14223.2
-18981.2,-15996.8,-17993,-26798.9,-12805.4,-8448.1,93750,-14218.3
-18994.4,-15986.8,-17995.7,-26797.4,-12792.8,-8443.6,93750,-14208.6
-18989.5,-15988.7,-17992.6,-26793.3,-12790.7,-8439.2,93750,-14206.8
-18983.3,-15990.4,-17991.1,-26792.8,-12792.3,-8438.1,93750,-14207.6
-18977.6,-15989,-17992,-26791.5,-12791.9,-8434,93750,-14206.1
-18976.1,-15984.7,-17994.3,-26790.2,-12794.7,-8434.8,93750,-14207.5
-18975.3,-15983.8,-17994.2,-26791.6,-12796.3,-8438.7,93750,-14210.3
-18972.1,-15985.5,-17997.1,-26793.6,-12796.8,-8440.5,93750,-14212.3
-18970.7,-15991.9,-18000.8,-26796.4,-12798.8,-8440.9,93750,-14213
-18974.4,-16001.8,-18000.5,-26794.6,-12807,-8441.5,93750,-14212.9
-18976.9,-15998.8,-17996.9,-26798.2,-12808.9,-8443.2,93750,-14215.4
-18975.1,-15998.2,-17995.5,-26804.4,-12806.2,-8442.7,93750,-14215.8
-18974.7,-15993.3,-17996,-26801.8,-12806.4,-8443.4,93750,-14216.6
-18985.2,-15972.6,-18003.2,-26797,-12822.5,-8453.6,93750,-14226.5
-18987.7,-15970,-18006.7,-26803.3,-12826.4,-8456.4,93750,-14229.2
-18985.6,-15974.7,-18009.1,-26807.3,-12822,-8455.5,93750,-14228.1
-18983.9,-15982,-18015.2,-26809,-12816,-8454,93750,-14226.7
-18976.8,-16002.4,-18011.7,-26812.9,-12797.1,-8444.1,93750,-14217.5
-18971.2,-16014.9,-17999.9,-26814.4,-12782.7,-8438.9,93750,-14209.9
-18966.7,-16023.6,-17990.4,-26812.1,-12775.2,-8433.9,93750,-14205
-18966,-16022.8,-17990.5,-26801.7,-12775.9,-8433,93750,-14204.3
-18964.2,-16019.4,-17993.6,-26792.2,-12775.2,-8429.6,93750,-14201.2
-18969.9,-16019.4,-17988,-26790.2,-12775.6,-8429.7,93750,-14200.8
-18970.4,-16018.5,-17986.1,-26788.1,-12776.9,-8429.3,93750,-14201
-18970.7,-16018.3,-17996.2,-26784.8,-12779,-8429.7,93750,-14200.3
-18965.2,-16022.6,-18005,-26784.7,-12782.3,-8430.2,93750,-14200.4
-18961.2,-16022,-18004.6,-26790.7,-12783.5,-8429.8,93750,-14202.5
-18958.6,-16020.1,-17996,-26802.7,-12783.5,-8429.4,93750,-14202.5
-18958.5,-16019,-17991.6,-26802.2,-12784.1,-8432.1,93750,-14205.7
-18961.7,-16010.2,-17990.9,-26793.2,-12794.3,-8443.8,93750,-14218.5
-18966.7,-16002.8,-17988.4,-26791,-12802.6,-8448,93750,-14222.8
-18970.9,-16001,-17985.7,-26794.1,-12801.6,-8448.2,93750,-14221.3
-18976.6,-15997.4,-17988.9,-26797.6,-12796.3,-8448,93750,-14217.6
-18989.1,-15987.4,-17993.9,-26798,-12782.8,-8445.1,93750,-14207.7
-18985,-15989.2,-17991,-26798.4,-12781.5,-8442.5,93750,-14207.5
-18979.9,-15992,-17994.9,-26799.8,-12783.2,-8439.7,93750,-14209.3
-18974.6,-15991.6,-18002.8,-26797.6,-12783.9,-8435.3,93750,-14208
-18971.8,-15988,-18005.8,-26794.8,-12787.3,-8434.3,93750,-14209
-18971.3,-15987.5,-18003.4,-26797.2,-12788.4,-8434.9,93750,-14209.6
-18969.2,-15989.1,-17998,-26798.3,-12787.3,-8436.8,93750,-14209.9
-18970.2,-15995.2,-17996.6,-26796.3,-12789.8,-8438.7,93750,-14210
-18973.1,-16005.7,-18000.6,-26789.7,-12796.3,-8437.6,93750,-14208.1
-18978,-16003.6,-18007.3,-26789.3,-12797.8,-8439.4,93750,-14210.4
-18982.3,-16004,-18004.7,-26791.8,-12797.6,-8440.8,93750,-14212.6
-18985.6,-15999,-17999.2,-26793.8,-12800.6,-8444.7,93750,-14217.2
-18995.6,-15978,-18006.4,-26790.2,-12818.4,-8455.9,93750,-14229.5
-18995.3,-15973.7,-18011,-26793.4,-12824,-8456.2,93750,-14231
-18993.3,-15977,-18007.4,-26798.7,-12820.2,-8455.1,93750,-14229.3
-18991.5,-15984.2,-18006.3,-26803.4,-12814.2,-8452.7,93750,-14227.5
-18981.9,-16003.3,-18002.4,-26807.4,-12793.7,-8441.1,93750,-14217.3
-18975.5,-16016,-17995,-26807.6,-12777.9,-8437.2,93750,-14211.3
-18970.5,-16024.8,-17983.7,-26807.3,-12771,-8434.5,93750,-14208.9
-18971.6,-16024.2,-17978.9,-26804.1,-12774.2,-8435.9,93750,-14210.2
-18972.1,-16022.2,-17975,-26802.5,-12778,-8436.3,93750,-14209.9
-18968.8,-16020.3,-17975.3,-26800.3,-12779.8,-8434.2,93750,-14208.4
-18964,-16018.3,-17979.3,-26797.7,-12780.9,-8432.3,93750,-14207.1
-18961.3,-16019,-17983.4,-26797.4,-12782.6,-8431.2,93750,-14203.7
-18953.7,-16025.2,-17985.8,-26799.4,-12783.9,-8429.8,93750,-14201.3
-18951.9,-16026,-17993.4,-26798.9,-12782,-8429.5,93750,-14201.9
-18956.9,-16024.4,-17996.2,-26797.2,-12782.8,-8431.1,93750,-14202.8
-18960.3,-16022,-17993.7,-26794.3,-12785,-8434.2,93750,-14205.5
-18963.2,-16012,-17996.5,-26790.2,-12796.8,-8444.4,93750,-14217.3
-18967.6,-16004.1,-18002.6,-26791.2,-12805.3,-8446.1,93750,-14220.1
-18971.2,-16002.7,-17999.7,-26794.4,-12804,-8445.2,93750,-14218.6
-18976.3,-15999,-18001.9,-26795.7,-12797.3,-8441.8,93750,-14212.5
-18989.7,-15989.9,-18008.6,-26795.7,-12780.1,-8435.4,93750,-14199.9
-18985.3,-15994.6,-18002.5,-26796.9,-12776.3,-8432.7,93750,-14199.3
-18977.7,-15999,-17998.9,-26798.4,-12777.6,-8433.4,93750,-14202.2
-18974.7,-15999.6,-18002.4,-26796.6,-12780.2,-8434.6,93750,-14204.5
-18974.6,-15995.8,-18004,-26793.8,-12787.6,-8438.1,93750,-14208.8
-18974.8,-15992.8,-18000.3,-26797.4,-12792.5,-8440.9,93750,-14211.1
-18972.9,-15992.6,-17997.2,-26800.5,-12792.5,-8440.5,93750,-14210.8
-18973.5,-15999,-17996.4,-26799.6,-12793.4,-8438.8,93750,-14208.9
-18977.3,-16009.7,-17995,-26796.1,-12798.3,-8435,93750,-14204.8
-18980.3,-16008.4,-17989.5,-26800.5,-12798.5,-8438.1,93750,-14207
-18978.5,-16009.8,-17986,-26805.5,-12796.9,-8441.1,93750,-14209.8
-18978.7,-16005.5,-17987,-26806.4,-12799.9,-8444.8,93750,-14214.6
-18987.3,-15983.4,-17999.9,-26804.8,-12818.7,-8456.7,93750,-14227.7
-18987,-15977.4,-18010.8,-26808.5,-12824.9,-8459,93750,-14231.9
-18984,-15978.7,-18012.6,-26809.8,-12821.8,-8458.2,93750,-14231.1
-18981.7,-15984.9,-18008.9,-26811.3,-12817.1,-8456.9,93750,-14229.7
-18972.6,-16004.3,-17997.8,-26813.7,-12797.9,-8445.5,93750,-14219.2
-18965.2,-16018.4,-17992.7,-26813.5,-12779.6,-8436.2,93750,-14208.9
-18958.5,-16029.5,-17989.2,-26810.8,-12767.9,-8429.1,93750,-14201.3
-18958.8,-16030.9,-17995,-26806.1,-12767.2,-8428.8,93750,-14199.5
-18957.9,-16029.2,-18005.5,-26802.1,-12766.9,-8427.2,93750,-14197.8
-18960.2,-16027.3,-18006.7,-26797.1,-12769.1,-8428.7,93750,-14199.4
-18963.6,-16023.8,-17999.6,-26791.8,-12773.5,-8431.9,93750,-14202.3
-18967.8,-16022.7,-17995.9,-26790.5,-12777.8,-8433.6,93750,-14203.8
-18962.2,-16026.3,-17989,-26791.4,-12780.6,-8431.4,93750,-14202.6
-18961.2,-16025.4,-17980.4,-26789.4,-12781.1,-8432.6,93750,-14204.2
-18963.9,-16023,-17984.7,-26787.3,-12781.5,-8432.4,93750,-14203.2
-18962.9,-16019.7,-17990.8,-26786.5,-12781.3,-8432.2,93750,-14203.4
-18965.3,-16011.8,-17987.5,-26789,-12792.4,-8445.7,93750,-14216.6
-18968.5,-16006.8,-17986.1,-26793.8,-12803.9,-8451.4,93750,-14222.4
-18969,-16005.9,-17988.4,-26796.7,-12806.6,-8450.9,93750,-14220.6
-18971.6,-16001.1,-17992.7,-26798,-12802.3,-8449.1,93750,-14215.2
-18981.2,-15990.5,-17992.8,-26798,-12787.3,-8444.6,93750,-14204.2
-18976.2,-15991,-17986.8,-26795.9,-12783.9,-8439.9,93750,-14201.6
-18972.4,-15993.5,-17983.9,-26795.1,-12785.2,-8439.5,93750,-14202.6
-18970.4,-15995.9,-17980.2,-26794.7,-12786.4,-8440.5,93750,-14204.1
-18967,-15995.3,-17980.8,-26795.5,-12792,-8442.6,93750,-14207.8
-18966.1,-15996.6,-17982.7,-26799.3,-12795.2,-8444,93750,-14209.9
-18965.9,-15998.4,-17985.5,-26799.5,-12796.6,-8444.5,93750,-14210.6
-18966.7,-16002.5,-17997.3,-26793.7,-12796.8,-8440.8,93750,-14207.1
-18971.2,-16010,-18004.1,-26784.4,-12801.6,-8439.1,93750,-14204
-18973.6,-16006.2,-17997.4,-26783.9,-12803.1,-8443.3,93750,-14207
-18972.1,-16007,-17993.7,-26788,-12800.6,-8441.5,93750,-14207
-18970.7,-16002.6,-17999.2,-26788.9,-12800.2,-8440.4,93750,-14206.8
-18981.1,-15980.5,-18011.9,-26787.7,-12815.7,-8450.1,93750,-14216.1
-18986.3,-15976.3,-18016.1,-26796.5,-12819.3,-8451.2,93750,-14218.6
-18990,-15979.8,-18018.5,-26804.6,-12814.9,-8451.2,93750,-14218.5
-18989.6,-15986.2,-18017.8,-26808.7,-12809.7,-8451.1,93750,-14218.8
-18980.2,-16006.3,-18000.7,-26813.3,-12790.7,-8440.9,93750,-14209.8
-18971,-16019.7,-17985.9,-26814.4,-12774.2,-8435.2,93750,-14203
-18960.8,-16028,-17976.3,-26811.5,-12764.5,-8429.1,93750,-14197.9
-18958.3,-16026.2,-17979,-26806.1,-12764.4,-8426.9,93750,-14195.8
-18959.1,-16024.3,-17977,-26804.3,-12765.4,-8428.4,93750,-14195.8
-18959.7,-16024.3,-17969.4,-26801.4,-12768.1,-8431,93750,-14198
-18960.3,-16023.6,-17966.7,-26797.7,-12772.1,-8433.2,93750,-14200.9
-18961.8,-16023.5,-17973.3,-26793.7,-12776.9,-8435.3,93750,-14202.1
-18955.1,-16029.2,-17965.7,-26794.7,-12782.6,-8437.1,93750,-14204
-18951.9,-16029.7,-17961.3,-26791.3,-12784.5,-8437.9,93750,-14206.9
-18951.1,-16026.8,-17966.5,-26785.3,-12785.1,-8435.6,93750,-14205.2
-18947.6,-16022,-17974.1,-26784.8,-12784,-8433.4,93750,-14203
-18946.4,-16011.8,-17984.1,-26783.7,-12792.7,-8441.8,93750,-14211.9
-18950.8,-16005.6,-17985.5,-26785.5,-12801.1,-8446.5,93750,-14215.9
-18957,-16005,-17981.9,-26789.4,-12801.8,-8448.9,93750,-14216.5
-18963.4,-16001.2,-17985.8,-26790.8,-12798.7,-8448.9,93750,-14214.4
-18975,-15989.3,-18002.5,-26785.3,-12784.7,-8440.7,93750,-14202.1
-18971.2,-15989.9,-18000.2,-26781.2,-12783.1,-8436,93750,-14199.6
-18968.6,-15993.2,-17993,-26779.6,-12785.6,-8435.3,93750,-14201.2
-18963.4,-15994.7,-17985.6,-26778.2,-12786.4,-8434.6,93750,-14201.1
-18962.1,-15992.4,-17981,-26779.7,-12790.5,-8438.2,93750,-14203.7
-18964.2,-15990.5,-17979,-26782.8,-12793,-8440.6,93750,-14205.4
-18966.1,-15990.4,-17974.1,-26785.9,-12794.6,-8442.2,93750,-14206.7
-18967.2,-15996.8,-17974.8,-26787.9,-12797.6,-8441.2,93750,-14206.5
-18971.9,-16006.9,-17977.6,-26785.6,-12804.7,-8438.6,93750,-14204.8
-18976.3,-16003.5,-17976.4,-26787.5,-12806.8,-8441.4,93750,-14208.7
-18975,-16001.2,-17977.1,-26790.2,-12805.2,-8441.9,93750,-14211
-18973.3,-15995.8,-17976.6,-26789.7,-12805.8,-8442.2,93750,-14211.7
-18983,-15974.2,-17985.2,-26787.2,-12820.4,-8451.9,93750,-14220.6
-18987.5,-15970.8,-17991.9,-26793.6,-12823,-8454.5,93750,-14223.8
-18985.6,-15975.5,-17994.8,-26799,-12817.8,-8453.3,93750,-14222.7
-18981.9,-15983.1,-18001.9,-26802.5,-12811.6,-8450.9,93750,-14220.4
-18973.9,-16002.4,-18007.8,-26803.4,-12791.2,-8437.2,93750,-14209
-18969.6,-16015.3,-18001.2,-26801.9,-12774,-8431.3,93750,-14201.5
-18964.7,-16024.3,-17985.7,-26797.5,-12766.2,-8429.2,93750,-14198.7
-18962,-16022.2,-17981.1,-26789.2,-12768.8,-8430.6,93750,-14199.8
-18956.4,-16018.7,-17979,-26786.5,-12770.4,-8430.5,93750,-14200.3
-18954.9,-16016.8,-17977.8,-26785.1,-12770.7,-8429.4,93750,-14199
-18958.3,-16015.4,-17984.2,-26782.2,-12771.1,-8428.8,93750,-14197.7
-18960.9,-16016.8,-17983.9,-26783,-12773.2,-8430.2,93750,-14197.4
-18956.2,-16022.8,-17975.1,-26786,-12778.3,-8433.3,93750,-14199.9
-18956.1,-16023.9,-17968.7,-26784.2,-12782.1,-8436.8,93750,-14205.2
-18959.2,-16022.7,-17963.1,-26781.5,-12785.3,-8438.2,93750,-14206.7
-18959.5,-16020.9,-17961.9,-26780.1,-12787.2,-8439.5,93750,-14208.7
-18956.3,-16012.8,-17966.3,-26777.9,-12796.8,-8446.6,93750,-14219.3
-18958.6,-16007.3,-17971.5,-26778.9,-12804.3,-8448.2,93750,-14221.5
