EEG1,EEG2,EEG3,EEG4,EEG5,EEG6,EEG7,EEG8
0,0,0,0,0,0,0,0
8325.5,4678.1,-9467.8,-1671.7,6766.8,551.6,9143.1,7539.3
8314.7,4674.7,-9471,-1671.9,6766,551.7,9142.9,7539.2
8316.3,4671.7,-9472,-1674.5,6763.2,549,9139.7,7536.8
8319.5,4671.8,-9469.9,-1674.8,6762.7,550.6,9139.8,7539.3
8325.3,4674.7,-9465.9,-1672.5,6764.6,552.2,9141.5,7540.8
8327.3,4677.6,-9463,-1668.7,6766.1,550.9,9141.8,7540.4
8327.6,4677.9,-9462.2,-1668.4,6766.7,550.6,9143,7540.5
8323.8,4677.6,-9462.9,-1669.1,6767.6,551.3,9144,7540.8
8318.5,4676.3,-9467,-1669.3,6765.8,549.7,9142.7,7538.8
8314,4672.8,-9471.1,-1668.9,6762.6,545,9139.1,7534.1
8317.3,4665.5,-9470.1,-1676.4,6756.6,540.2,9133.9,7527.9
8317.8,4666.4,-9470.3,-1679.1,6755.4,540.8,9133.3,7527.5
8315.7,4670.9,-9465,-1678,6759.2,545.5,9137.1,7532.1
8319.6,4671.3,-9458.7,-1678.9,6760.1,545.4,9137.7,7532.6
8324.6,4674.8,-9468.3,-1675.1,6761.9,548.1,9139.4,7537.2
8324.8,4676.3,-9470.7,-1672.2,6763.9,551.7,9142,7538.7
8321.9,4671.3,-9467.5,-1672.5,6762.9,551.8,9141.2,7537.4
8323.7,4670.6,-9463.4,-1670.6,6764.3,554.8,9142.4,7539
8320.8,4672.4,-9469.3,-1671.1,6765.5,554.2,9143.1,7538.7
8318,4671,-9471.3,-1672.7,6763.3,550.5,9140.6,7535.8
8324.4,4671,-9470.4,-1672.6,6764.5,551.1,9142.6,7537.5
8325.3,4670.7,-9470.7,-1673.6,6765.8,550.1,9144.1,7536.5
8320.6,4672.4,-9471.7,-1672.2,6768.7,551.6,9146.5,7537.2
8321.8,4674.3,-9469.7,-1670.7,6771.2,553.3,9148.3,7538.6
8320.3,4674.1,-9471.2,-1672.1,6772.7,554.3,9149.3,7539.9
8313.5,4679.8,-9475.3,-1674.5,6775.6,558.9,9152.5,7544.1
8316.3,4679.1,-9473.1,-1673.2,6773.4,557.8,9149.9,7541.9
8320.4,4673.5,-9472.3,-1674.7,6769.4,554.8,9145.7,7538.5
8326.9,4674.1,-9470.9,-1673.3,6768.1,553.8,9144.3,7538.3
8323.4,4676.5,-9468.9,-1670.1,6770.8,556.5,9147,7541.2
8321.3,4678.8,-9468.1,-1669.1,6773.2,559.3,9149.5,7543.6
8326.7,4681.9,-9465.2,-1669.4,6776.1,561.7,9151.7,7546
8326.8,4681.1,-9465.6,-1671.9,6778.7,564.1,9153.8,7548.5
8326.6,4680.4,-9467.3,-1672.9,6778.3,565.5,9154.1,7549.4
8330.9,4677.2,-9466,-1671.6,6774.9,562.2,9151.2,7545.6
8328.5,4671,-9468.2,-1673.1,6772.9,559.9,9149.1,7542.8
8328.5,4667,-9469,-1674.5,6772.1,559,9148.4,7542.2
8329,4662.5,-9469.1,-1675.4,6773.6,559.1,9150,7542.8
8322.9,4665.3,-9472,-1676.6,6775.7,560.7,9152.5,7545.6
8323.1,4679.1,-9470.2,-1670.7,6775.5,560.8,9152.2,7546.2
8324.1,4690.5,-9468.8,-1665.6,6774.9,559.5,9151.2,7544.1
8323.2,4696.1,-9469.9,-1662.3,6772.3,555.5,9148,7540.1
8323.7,4691.1,-9470.3,-1665.6,6770,553.6,9145.5,7538.1
8320.5,4682.5,-9472.1,-1669.3,6770.7,555.1,9146.2,7538.9
8319.1,4674.3,-9474,-1672.7,6770,554.4,9145.3,7537.7
8319.5,4674.8,-9474.7,-1673.5,6766.8,551,9142.2,7534.1
8319.8,4679.5,-9474,-1671.7,6766.5,551.4,9142.3,7534.2
8321.8,4687.6,-9472.4,-1667.7,6767.9,553.7,9144.5,7536.4
8321.5,4690.5,-9468.4,-1664.9,6771.1,558,9147.6,7540.1
8324.2,4692.5,-9461.7,-1662.1,6776.3,565.7,9153.4,7546.1
8321.7,4695.6,-9463,-1661,6778.5,567.2,9156.1,7548.3
8317.3,4693.3,-9459.5,-1662.8,6774.1,562.5,9151.8,7544.1
8321.1,4693.5,-9465.6,-1663.8,6771.7,558,9148.9,7540.2
8329,4689.1,-9473.8,-1666.3,6767.9,552.5,9144.6,7534.6
8320.9,4685.5,-9472.5,-1670,6768.9,553.5,9144.7,7535
8320.1,4689.9,-9470.6,-1669.3,6771.1,557.1,9147.2,7538.1
8318.4,4691.5,-9472.1,-1666.7,6772.9,559.1,9148.7,7540.5
8319,4696.3,-9471.1,-1665.3,6779.9,566.7,9156.4,7549
8321.8,4698.1,-9467.8,-1662.5,6780.4,566.9,9157.2,7548.5
8321.4,4694.4,-9467.2,-1663.1,6776.8,562.6,9153.5,7543.7
8324.7,4691.4,-9466.9,-1663.8,6773.3,558.8,9150.1,7540
8319.5,4688.8,-9467.9,-1664.4,6770.5,556.8,9147.4,7537.9
8310.8,4689.4,-9470.7,-1664.5,6769.7,556.7,9146.9,7538.4
8314.5,4691,-9469.6,-1663.7,6770.2,557.3,9147.7,7539.5
8317.8,4690.9,-9467.3,-1663.5,6769.8,557.4,9147.6,7539.8
8317.1,4694.3,-9466.4,-1662.1,6776.2,564.3,9154.6,7547.7
8320.1,4696.4,-9464,-1658.8,6779.1,565.9,9157.4,7550.3
8319.2,4695.1,-9464.1,-1658.4,6779.3,564.6,9157.1,7549.5
8317.8,4695.1,-9465.2,-1658.8,6776.1,562.3,9154.5,7547.2
8318.6,4689.3,-9465.3,-1661.1,6772.2,558.4,9150.3,7542.1
8315.1,4683.9,-9467.6,-1664.9,6768.7,555.8,9147.5,7539.3
8314.9,4684.3,-9467.5,-1665,6766.1,556.1,9146.4,7539.8
8311.9,4688.3,-9468.4,-1661.3,6766.9,557.5,9147.1,7541.5
8308.8,4691.9,-9469.3,-1656.1,6768.6,557,9147.9,7541.5
8315,4689.5,-9466.3,-1660.7,6770.6,558.1,9149.1,7542.7
8318.3,4687.6,-9464.6,-1663.1,6771.1,558.9,9149.4,7543.2
8316.5,4685.1,-9465.9,-1664.3,6771.1,559.5,9149.5,7543.2
8316.1,4681.6,-9469.5,-1666.3,6768.2,554.6,9145.5,7538.5
8312.1,4677.4,-9473.8,-1669.4,6764.8,551.6,9141.5,7535.4
8307.7,4674.8,-9474.8,-1671.2,6763.1,552,9140.6,7534.8
8310,4676.1,-9470.2,-1669.3,6764.8,555.4,9142.7,7537
8318.3,4679.8,-9461.8,-1667.2,6768.1,560.4,9145.5,7540.9
8317.1,4687.8,-9463.8,-1661.3,6775.9,566.2,9153.1,7548.4
8320.8,4689.8,-9462.4,-1658.9,6778.3,566.2,9155.1,7548.8
8323.9,4688.7,-9461.4,-1661.2,6777.2,563.6,9154,7547
8324,4687.8,-9463.7,-1664.5,6772.8,557.6,9149.6,7541.9
8318.7,4683.2,-9466.2,-1668.6,6769.9,553.6,9145.9,7537.5
8318,4680,-9467.4,-1669.7,6767.1,551,9142.9,7533.7
8317.1,4679.6,-9468.2,-1671.8,6767.1,551.1,9143.5,7533.8
8316,4685.4,-9466.9,-1672,6774.6,559.2,9150.8,7541.4
8319.7,4689.7,-9464,-1667.1,6777.8,563.6,9153.6,7545.3
8322.7,4691.6,-9462.2,-1664.9,6780.2,565.9,9156.1,7547.7
8325.4,4692.1,-9460.2,-1663,6781.4,566.1,9156.9,7548.4
8324.7,4693.3,-9461.4,-1663.8,6780.5,564.8,9155.7,7547.3
8320.9,4689.5,-9464.2,-1668.9,6778.9,563.7,9154.2,7545.3
8320.8,4684.8,-9465.6,-1670.7,6776,561.1,9151.1,7541.6
8317.6,4683.6,-9467.9,-1672.4,6772.4,559.2,9147.9,7539.7
8315.1,4686.3,-9470.7,-1672,6776.1,564.1,9152.2,7545.2
8321,4689.4,-9467.3,-1667.7,6778.2,565.2,9154.9,7546.3
8324.3,4693,-9462.6,-1663.8,6781.4,568,9158.3,7549.9
8326,4697.9,-9459,-1659.4,6783.4,568.9,9160,7551.8
8330.2,4695,-9456.1,-1659.8,6781.2,565.7,9157.7,7548.1
8325.8,4693.3,-9459.1,-1662.3,6778.9,564.1,9155.8,7546.7
8323.1,4689.3,-9461.6,-1665.8,6777.4,562.5,9154.1,7545.2
8316.7,4687.7,-9466,-1665.6,6773.9,559.5,9150.6,7543.7
8313.6,4688.3,-9467.7,-1661.9,6771.6,558,9148.9,7541.2
8320,4687.7,-9463.5,-1662.9,6771.9,558.6,9149.3,7540.8
8319.2,4690.2,-9464,-1664.2,6773.7,560.9,9151.1,7543.8
8324.3,4694.3,-9461.9,-1663.3,6778.6,566.1,9156.2,7550.3
8326.2,4693.2,-9460.8,-1661.7,6778.6,565.4,9155.8,7549.5
8318.4,4690.7,-9464.5,-1662.8,6775.8,562.8,9152.8,7546.9
8317.6,4689,-9465.9,-1665,6773.6,561.7,9150.7,7545
8321.6,4686.9,-9465.3,-1666.9,6769.4,558.7,9146.6,7540.5
8318.6,4687.8,-9463.9,-1665.6,6769.2,562,9148.2,7542.1
8313.8,4693.2,-9465.1,-1661.9,6774.6,565.7,9154.5,7547
8320.3,4694.4,-9463.4,-1660.3,6775.6,565,9155.9,7546.3
8323,4699.2,-9462.7,-1658,6779,566.6,9159.2,7549
8321.5,4701.7,-9460,-1656.9,6778.5,564.2,9158.2,7547.8
8315,4699.3,-9456.5,-1658.6,6776.4,561.1,9155,7544.6
8319.8,4694.1,-9465.4,-1662.4,6774,559.7,9152.8,7542.2
8318.9,4692.3,-9470.4,-1665.1,6770.2,558.5,9149.9,7540
8310.6,4695.5,-9472.9,-1665.5,6769.4,561.1,9150.5,7542.7
8312.3,4695.3,-9469.8,-1664.3,6769.8,562.6,9151.5,7544.4
8315.3,4694.3,-9467.4,-1663.6,6772.3,564.1,9153.6,7546.8
8317.6,4693.2,-9465.2,-1662.9,6775.1,565.8,9155.6,7549
8321.2,4697.6,-9462.1,-1659.7,6778.6,568.4,9158.6,7552.1
8320.9,4699,-9462.4,-1658.9,6779.1,568.7,9159.2,7552.7
8322.2,4696.7,-9461.4,-1660.8,6777.1,566.8,9157.3,7550.4
8315.9,4693.6,-9464.5,-1664,6774.7,564.9,9154.1,7546.9
8318.8,4688.6,-9465.5,-1668,6771.8,563.1,9150.7,7544.7
8312.6,4688.6,-9469.1,-1666.9,6771.7,563.7,9151,7545
8310.1,4691.1,-9469.3,-1666.7,6773.1,564.2,9151.5,7545.2
8316.1,4693,-9464.9,-1666.7,6775,565.1,9153.4,7546.7
8321.4,4695.2,-9461,-1664.5,6775.8,564.4,9153.8,7546.2
8319.8,4698,-9460.4,-1663.8,6778.9,566.2,9157.1,7548.3
8318.9,4697.2,-9462.1,-1663.5,6778.7,566.1,9157.1,7547.9
8313.4,4693.4,-9467,-1663.4,6777.2,564.6,9155.3,7545.7
8309.5,4688.6,-9471.4,-1664.2,6774.6,560.9,9152.4,7541.8
8307.5,4682.9,-9474,-1670.7,6772.5,558.7,9150.1,7538.3
8306.3,4681.6,-9473.7,-1673.9,6773.4,560.7,9151.3,7539.5
8311.9,4682.1,-9469.8,-1672.6,6775.7,562.4,9153.3,7541.8
8317.4,4681.6,-9467,-1671.4,6776.9,561.9,9153.9,7541.3
8316.1,4685.8,-9466.4,-1669.1,6779.3,565.1,9156.5,7544.5
8316.1,4688.3,-9464.9,-1669.5,6779.7,567,9157.4,7546.9
8314.9,4687.8,-9463.2,-1670.7,6778,566.7,9155.7,7546.1
8319.7,4685.9,-9459.4,-1672.3,6776.6,568,9154.8,7546.2
8321.1,4684.4,-9461.9,-1674.5,6776.3,567.8,9155,7546.3
8312.7,4686,-9464.3,-1673.4,6776.6,567.3,9154.7,7546.2
8318.3,4686.9,-9464.4,-1674.2,6775.5,565.3,9153.6,7545.4
8321,4682.5,-9465.2,-1675.7,6775.5,564.2,9154.2,7545.5
8318.6,4678,-9464.6,-1677.3,6779.2,567.9,9157.9,7548.7
8317.7,4677.6,-9464.7,-1676.9,6783.2,571.7,9161.6,7552.5
8310.3,4676.4,-9469.2,-1677.9,6783.5,572.2,9161.7,7553.9
8305.1,4684.5,-9473.1,-1677.5,6783.4,574.2,9162.8,7556.7
8313.1,4690.6,-9469.5,-1674.1,6776.8,568.8,9156.6,7550.3
8311,4695.9,-9472.1,-1670.9,6771.5,563.6,9151.4,7545
8309.2,4702.1,-9471.8,-1667.5,6769.3,562.4,9149.8,7543.4
8313.1,4703.2,-9467.8,-1665.6,6771.9,566.1,9152.9,7546.5
8315,4701.9,-9466.2,-1664.1,6774,568.3,9155.4,7549.7
8316.5,4701.5,-9464.7,-1662.9,6778.5,570.9,9159.3,7553.2
8313.4,4704,-9465.9,-1663.6,6780.4,570.9,9160.6,7553.4
8314.1,4706.4,-9467,-1665.6,6780.7,570.5,9160.6,7552.5
8317.5,4705.4,-9467.2,-1665.6,6777.3,566.9,9156.5,7547.8
8311.6,4704,-9469.3,-1664.6,6774.9,563.6,9154,7544.4
8312.4,4700.4,-9469.5,-1666.1,6772.7,560.1,9150.8,7540.8
8315,4694.9,-9468.3,-1667.7,6771.5,557.4,9148.1,7537.4
8310.1,4696.3,-9468.3,-1667.5,6772.9,559.5,9149.6,7540.3
8306.6,4700.3,-9468.7,-1665.3,6776.1,563.3,9153.4,7545.3
8305.2,4701.7,-9469,-1662.1,6777.3,564.2,9155.1,7547.2
8302.1,4697.9,-9470.9,-1662.2,6777.3,562.8,9154.5,7546.4
8305.1,4691.8,-9470.4,-1669.6,6773.8,558.7,9151.1,7541.7
8301.6,4691.1,-9472.7,-1671.5,6771,556.6,9148.4,7538.7
8299.5,4689.5,-9476.6,-1671.9,6770,555.5,9146.8,7536.4
8301.7,4684.7,-9476.9,-1673.7,6768.3,554.1,9145.1,7534.5
8303.3,4685,-9472.7,-1672.8,6767.7,554.8,9144.1,7535.4
8296.4,4687.7,-9466,-1670.7,6770.7,558.5,9146.7,7539.7
8302.1,4691.5,-9463.8,-1667.7,6773.4,561.4,9150.2,7543.2
8311.5,4695.8,-9464.8,-1665.2,6777.6,567.2,9155.5,7549.2
8311.3,4697.6,-9464.6,-1663.6,6779.3,569,9157.8,7549.3
8309.3,4696.1,-9467.7,-1663.8,6777.8,566.9,9156,7546.7
8306.3,4692.6,-9470.9,-1667.8,6775.5,563.3,9153.6,7544.5
8304,4688.1,-9475,-1670.7,6770.4,557.5,9148.5,7539.8
8303.4,4686.3,-9475.6,-1671.1,6768.9,557.2,9147.1,7539
8311.4,4688,-9472.8,-1669.4,6769.9,559.2,9148.3,7540.3
8301.4,4690,-9474,-1668.7,6774.8,564.1,9153.3,7545.7
8296.4,4697.3,-9474.7,-1668.6,6783.8,572.9,9162.2,7556.2
8302,4702.4,-9471.2,-1666.6,6784.8,572.9,9162.9,7556.3
8303.9,4699.6,-9470.9,-1667.4,6781.8,568.3,9159.3,7551.4
8303.1,4695.1,-9470.7,-1668.2,6780.2,565.9,9157.1,7548.6
8303.3,4691.5,-9470.6,-1670.1,6776.4,561.9,9153.4,7543.8
8301.9,4692.4,-9472.9,-1673,6772.8,558.6,9150.4,7540.2
8302.9,4693.5,-9472.3,-1671,6773.7,560.2,9152.1,7541.8
8302,4691.2,-9473.4,-1671.5,6776.3,562.9,9154.4,7543.9
8305.9,4694.2,-9472.1,-1671.5,6780.5,567.3,9158.7,7548.4
8310,4695.2,-9469,-1668,6783.5,569.1,9161.3,7550.4
8308.3,4695.6,-9468.6,-1667.4,6782.1,568.1,9160,7548.8
8310.7,4695.4,-9467.2,-1667.9,6778.7,565.7,9156.6,7546.2
8310.8,4690.3,-9467.9,-1669.5,6773.5,560.7,9151.8,7540.2
8307.9,4684.6,-9469.8,-1672.5,6770.8,558.6,9149.7,7536.9
8304.5,4686.9,-9471.2,-1672.7,6771.7,559.4,9149.9,7537.6
8305.6,4688.4,-9469.7,-1671.3,6774.1,561.5,9152.4,7540.1
8305.2,4690,-9468.9,-1669.1,6774,561,9152.8,7540.1
8309.1,4693.2,-9466.4,-1669.9,6775,562.2,9153.6,7541.2
8310.4,4694.2,-9466.8,-1671,6775.8,564.1,9154.7,7542.8
8314,4692.4,-9465.5,-1673.2,6773.9,563.5,9154,7542.3
8317.4,4687.9,-9464,-1675.3,6768.8,558.6,9148.4,7537.3
8309.1,4685,-9468.3,-1676.5,6766.6,557.3,9146.1,7536.1
8306.5,4684.1,-9470.8,-1677.8,6765.8,557,9145.3,7535.2
8308.2,4686.3,-9468.4,-1675.9,6768,560,9148,7537.4
8313.8,4688.9,-9461.6,-1673.4,6773.4,567,9154.1,7543.8
8319.2,4694.9,-9460.4,-1671.2,6778.8,570.8,9159.6,7550
8321.8,4696.7,-9458.6,-1670.1,6780.6,572.1,9161.5,7553.3
8321,4696.2,-9460.8,-1671.6,6779,571.7,9160.4,7553.9
8315.7,4694.6,-9466,-1671.7,6773.4,566.5,9155.2,7549.2
8311.2,4689.5,-9467.9,-1674.2,6769.9,562.6,9151.6,7544.7
8308.1,4686.7,-9468.8,-1676.8,6768.6,560.9,9149.8,7542.9
8305.9,4686.1,-9471.6,-1678.6,6767.6,560.7,9149.1,7542.8
8300.6,4693.1,-9474,-1675.7,6775.5,569.2,9157.5,7551.7
8306.8,4696.6,-9469.7,-1670.4,6779.8,571.7,9161,7554.4
8311.6,4697.5,-9466.1,-1668.3,6781.6,572,9162.3,7555.2
8313.7,4700.1,-9463.2,-1666.2,6782.5,571.2,9162.3,7554.8
8314.6,4698.8,-9462.7,-1666.5,6781.9,569.7,9161.1,7552.7
8311.7,4696.3,-9465.4,-1671.6,6779.8,568.4,9159.3,7550.1
8308.8,4693.4,-9467.3,-1676.1,6776.5,566.3,9156.2,7547.3
8309.1,4689.3,-9469,-1677.8,6772.1,563.1,9151.7,7543.7
8305.7,4693.2,-9470.5,-1676,6774.7,566.9,9154.9,7547.8
8309.7,4696.8,-9467.8,-1669.9,6777.2,570,9157.4,7550.8
8315.8,4696.9,-9464,-1667.5,6780.8,573.3,9161.4,7553.9
8323.3,4698.4,-9461.7,-1665.2,6783.3,574.2,9163.1,7554.9
8316.2,4695.5,-9462.4,-1667.3,6783.8,572.7,9163,7554.2
8312.4,4696.3,-9465,-1671,6780.3,569.1,9159.6,7551
8310.2,4694,-9467.5,-1673.4,6777.9,566.6,9156.8,7549
8304,4690.3,-9472.3,-1673.6,6775.6,564.5,9154.5,7547.3
8302.5,4690.9,-9473.4,-1670.6,6773.4,562.5,9151.8,7545.5
8307.8,4690.9,-9470.3,-1673.8,6774.4,563.9,9152.9,7545.6
8310.7,4692.2,-9467.8,-1675.5,6776.5,566.7,9155.8,7547.9
8317,4693.5,-9463.9,-1672.8,6780,569.2,9159.6,7551.2
8323.6,4692.3,-9461.8,-1670.9,6777.8,565.9,9156.8,7547
8309.2,4693.6,-9464,-1670.9,6775.4,564.9,9155.2,7545.7
8300.1,4694.3,-9462.1,-1671.2,6772.3,563.4,9152.8,7544
8304.4,4687.9,-9467,-1675.8,6769.1,560.9,9149.7,7540.5
8310.1,4688.2,-9468,-1676.3,6770.1,563.8,9150.9,7541.4
8311.5,4696.3,-9465.9,-1670.2,6770.8,566.4,9152.6,7545.4
8315.4,4698.6,-9464,-1666.7,6772.1,567.3,9154.2,7547.2
8317.8,4700.9,-9463.3,-1664.6,6775.9,568.9,9157.8,7550.3
8322.1,4701.8,-9461,-1664,6775.3,566.7,9156.6,7549.8
8320.7,4699.6,-9460.7,-1665.8,6771.2,564.4,9152.3,7547.8
8317.7,4693.7,-9462.7,-1668.8,6769.2,562.5,9150.2,7544.9
8311.2,4691,-9466.7,-1671.5,6768.9,561.9,9149.6,7543.4
8309.6,4691.4,-9468.3,-1675.4,6769,563.4,9150.4,7544.8
8312.2,4696,-9465.6,-1672.8,6768.5,564.8,9150.3,7545.6
8313.7,4699.8,-9463.5,-1670.4,6770.7,565.7,9152.4,7546.4
8317.2,4700.6,-9460.6,-1667.2,6773.7,566.6,9154.9,7548.7
8321.4,4701.9,-9456.8,-1664.5,6776.4,568.2,9157.2,7551.1
8325,4703.2,-9454.4,-1663.9,6777.7,567.9,9158.1,7550.7
8324.5,4699.4,-9454.4,-1664.4,6775,565.5,9155.2,7548
8316.5,4690.7,-9458.9,-1668.1,6773.7,565.3,9153.9,7546.9
8311.7,4683.9,-9463.9,-1675,6773.8,566,9154.7,7547.7
8309.7,4682.7,-9466.4,-1676.3,6773.1,565.4,9154.1,7546.7
8308.7,4688.3,-9467.5,-1675.9,6772.3,565.4,9153.5,7545.5
8312.7,4695,-9464.6,-1672.1,6771.1,564.4,9151.9,7544.1
8318.4,4700.7,-9460,-1666.5,6771.3,564.3,9151.9,7544.2
8321,4704.5,-9457.4,-1664.7,6770.3,564.6,9151.2,7544.9
8319.4,4705.8,-9458.4,-1663.1,6771.2,566.4,9152.1,7547.4
8312.6,4706,-9462.8,-1661.9,6770.1,565.8,9151,7546.9
8309.8,4701.6,-9468.1,-1662.1,6767.4,561.7,9147.6,7542.4
8301.3,4696.6,-9469.3,-1667.1,6766.4,559.7,9145.8,7539.4
8300.3,4700.5,-9469,-1667.2,6764.9,558.4,9144,7537.4
8305.8,4706,-9464.7,-1663.9,6767.2,560.2,9146.4,7539.2
8309.3,4709.1,-9462.8,-1660.9,6767.9,558.9,9147.2,7538.1
8307.1,4709.6,-9463.8,-1659.6,6769.8,559.8,9149.1,7539.7
8306.3,4713,-9463.2,-1658,6772.3,562.3,9151.7,7542.6
8306.3,4713.8,-9461,-1657.5,6771.6,562.7,9150.2,7542.7
8306,4713.1,-9458.5,-1658.7,6770.9,565.5,9150.2,7543.6
8310,4712.1,-9459.2,-1660.3,6770.3,564.6,9150.3,7543.6
8305.8,4710.6,-9461.8,-1660.2,6768.9,562.6,9148.4,7542.8
8302.1,4710.9,-9463.9,-1660.1,6770.3,563,9150.5,7544.6
8300.6,4711.3,-9459.9,-1659.5,6770.9,561.1,9150.9,7544.4
8297.4,4711.8,-9460.2,-1660,6772.1,562.3,9151.8,7546.6
8307.1,4711.6,-9466.3,-1661.3,6775.7,566,9154.9,7550.9
8304.5,4713.9,-9467,-1661.7,6773.1,565.6,9152.9,7549.6
8299.7,4716.4,-9468.4,-1662.9,6774.6,568.4,9155.1,7552.2
8302.3,4714.3,-9465.4,-1662.5,6774.6,566.6,9154.6,7549.4
8308,4710.7,-9465.3,-1664.9,6769.9,560.4,9149.2,7542.1
8303.8,4711.1,-9467.4,-1665.7,6768,558.9,9148.1,7540.8
8303.3,4713.5,-9464.4,-1664.1,6770.8,560.9,9150.7,7543.2
8307.5,4715.3,-9460.9,-1661.4,6771.2,561.8,9151.4,7544.1
8310.6,4716.4,-9458.7,-1658.5,6773,564.3,9154,7547.7
8310.1,4715.1,-9459.6,-1658.3,6772.5,565,9154.3,7549.6
8307,4715.3,-9462.4,-1661,6773.4,566.5,9154.7,7550.9
8305.1,4716.7,-9463,-1658.5,6773.1,565.2,9153.5,7549
8303,4713.7,-9464.4,-1660.6,6770.4,561.6,9150.1,7545.1
8302.1,4709.8,-9465.6,-1661.5,6768.8,558.8,9147.9,7542.7
8308.9,4704.3,-9463.3,-1662.4,6767.4,556.9,9146.9,7541
8308.2,4706.9,-9461.3,-1661.6,6769.7,558.6,9149.6,7543.4
8301.3,4712.5,-9460.6,-1661.2,6772.8,561.8,9152.9,7546.5
8301.4,4714.7,-9461.4,-1659.9,6774.5,563.4,9155.1,7548.5
8300.3,4712.4,-9462.5,-1657,6774.2,562.5,9155.8,7547.5
8301.8,4706.7,-9461.7,-1660.3,6769.3,558.5,9150.8,7542.5
8294.5,4703.7,-9465.5,-1662.1,6766.9,557.2,9148.5,7540.2
8297.1,4701.3,-9465.3,-1664.3,6763.7,554.8,9146,7537.2
8300.2,4699.4,-9465.8,-1666.6,6761.9,551.2,9144.1,7533.2
8299.7,4698.2,-9466.9,-1666.2,6764,552.5,9146,7534.8
8300.3,4698.2,-9465.8,-1664.8,6766.1,554.7,9147.9,7536.9
8299.8,4698,-9463.1,-1664.3,6770.3,559.5,9152.4,7540.8
8304.7,4699.7,-9456.5,-1663.3,6775.6,566.6,9158,7546.8
8304,4701.7,-9459.6,-1662.6,6778.1,567.4,9160.2,7549
8300.2,4703,-9463.6,-1663,6775.1,563.7,9157.1,7545.8
8300.3,4703.7,-9466.4,-1662.8,6770.8,558.7,9152.4,7541
8299.5,4703.7,-9468.9,-1663.4,6764.4,551.7,9145.8,7533.6
8299.7,4706.9,-9468.3,-1663.3,6761.1,548.4,9142.7,7529.5
8301.9,4715.1,-9465.1,-1660.1,6763.3,550.7,9144.7,7531.7
8302.1,4718.8,-9463.8,-1658.8,6765.4,553.4,9146.7,7534
8302.7,4724.3,-9462.7,-1656.4,6774.5,562.3,9156,7543.3
8308.4,4724.5,-9459.3,-1654,6777.5,564,9158.3,7544.9
8306.7,4722.9,-9459.8,-1653.6,6776.4,560.8,9156.7,7542.7
8300.5,4721.3,-9463.1,-1653,6775.1,559.6,9156.2,7542.4
8298.4,4717.1,-9464.4,-1656,6775.3,558.7,9156.2,7542.1
8297.8,4716.4,-9465.1,-1658.6,6772.6,557.2,9153.8,7540.1
8297.8,4718.6,-9463.9,-1657.7,6773.5,559.4,9154.9,7542.3
8296.7,4720.3,-9463.7,-1657.4,6777.3,561.8,9158.2,7545.8
8299.8,4722.1,-9463.1,-1658.3,6783.8,567.8,9164,7553.4
8303.9,4723.5,-9460.8,-1654.8,6784.5,568.4,9164.5,7554.7
8303.9,4723.5,-9459.9,-1652.3,6782.7,566.2,9162.2,7552.5
8304.3,4722.3,-9460.7,-1651.7,6780.7,564.3,9159.4,7551.1
8305.8,4718.3,-9461.6,-1652.1,6773.5,559.7,9152.7,7546.8
8303.2,4714.9,-9462.7,-1655.1,6768.1,556.7,9148,7542.7
8301.4,4715.4,-9462.8,-1656.1,6769.6,557.7,9149.7,7543.2
8298.2,4717.6,-9464.7,-1653.5,6770.5,558.3,9150.9,7544.3
8294.3,4719.4,-9465.9,-1647.9,6769.9,558,9150.9,7545.5
8304.1,4721.3,-9459.7,-1648.1,6770.4,558.9,9151.9,7547
8295.2,4723.1,-9455.4,-1648.5,6770.7,560.9,9152.7,7549.4
8290.2,4720,-9456.8,-1652.3,6770.3,560.9,9152.1,7549.1
8300.7,4717.2,-9466.4,-1655.7,6766.7,557.4,9148.6,7544.8
8294.7,4715.3,-9469.2,-1658.6,6762.3,555.2,9145.1,7542.2
8291.3,4713.5,-9470.2,-1659.1,6761.6,554.1,9143.8,7539.8
8294.7,4712.8,-9466.3,-1657.6,6762.7,556,9144.3,7539.3
8299.2,4717.6,-9459.3,-1653.4,6766.6,562.9,9149.1,7545
8302.2,4721.5,-9458.1,-1650.9,6774.2,567.9,9156.8,7551.6
8305.2,4724.5,-9457.7,-1649.2,6777.7,569.7,9159.6,7554.2
8306.4,4723.4,-9459.7,-1650.3,6776,567.9,9158.1,7552.4
8305.8,4718.6,-9463.6,-1653.3,6772.6,563.4,9154.5,7548.3
8298.5,4715.6,-9466.8,-1655.2,6768.4,559.4,9150.3,7545.4
8294.2,4712.2,-9468.7,-1658.3,6766.6,558.6,9148.1,7543.8
8292.8,4711.6,-9470.6,-1660.3,6765.4,558.8,9147.8,7540.7
8292.2,4716.8,-9470.1,-1659.1,6772.4,565.8,9155.5,7548.6
8297.1,4720.4,-9466,-1655.3,6776.6,568.5,9159.5,7551.3
8303,4723.2,-9461.9,-1652.6,6778.2,569.3,9161.4,7552.2
8305.3,4724,-9460.7,-1652.4,6778.9,569.5,9161.3,7553.8
8302.7,4725,-9462,-1650.7,6777.5,568.1,9159.1,7552.8
8300,4721.4,-9464.9,-1653.5,6775.1,564.4,9156.3,7547.9
8297.3,4718.3,-9466.4,-1656.3,6772.3,561.4,9153.3,7544.1
8293,4713.8,-9468.7,-1660.3,6770.8,560.2,9151.3,7542.3
8295.5,4717.1,-9469.6,-1661,6773.7,563.9,9154,7546
8301.3,4721.6,-9467.9,-1657.1,6776.4,566.4,9157,7548.8
8301.3,4724,-9466,-1653.6,6779.4,568.2,9159.6,7550.7
8303.7,4726.2,-9462.5,-1650.1,6782.7,570.9,9162.9,7553.5
8307.6,4723.1,-9460.3,-1649.2,6781,568.8,9161.4,7551.4
8304.7,4720.6,-9461.6,-1652.4,6777.6,566,9157.9,7548.5
8300.7,4721.8,-9464.7,-1654.3,6775,564.3,9156.1,7546.3
8293.6,4718.7,-9468.7,-1656.4,6774.4,563.2,9156.5,7545.7
8289.1,4717.4,-9472,-1654.9,6773.4,561.2,9156.2,7544.5
8294.6,4715.7,-9468.7,-1658.7,6773,561.1,9155.7,7544.5
8304.3,4715.2,-9464.2,-1659.2,6776,564,9159.1,7547.5
8305.5,4715.9,-9463,-1655.6,6780.8,568.3,9164.1,7553
8302,4713.9,-9463.2,-1654.2,6783.8,569.7,9166.1,7555.2
8298,4713.5,-9466.6,-1655.6,6781.3,567.4,9163.1,7552.8
8296.8,4719.6,-9466.9,-1656,6777.4,563.2,9158.7,7547.7
8293.3,4722.9,-9465.4,-1654.8,6775.3,560.8,9155.6,7544.4
8294.7,4722.4,-9460.5,-1653.9,6775.3,563.4,9156,7545.9
8299.6,4727.3,-9459.4,-1651.1,6777.7,565.9,9158.8,7550
8301.2,4731.1,-9459.2,-1647.8,6780.5,567.7,9161.3,7552.9
8304.7,4740,-9458.4,-1644.3,6781.8,569,9162.9,7554.7
8311,4744.5,-9456.6,-1642.9,6778.2,565.8,9160.4,7552.4
8304.4,4740.6,-9457.5,-1645.3,6778.7,567.3,9161.4,7553.5
8297.8,4733.3,-9461.4,-1649.4,6778.2,569.6,9161.5,7555.6
8293.8,4731.2,-9464.6,-1652.2,6774.6,568.8,9158.5,7554.5
8288.3,4734.7,-9467.8,-1652.8,6775.4,570.5,9159.7,7556.1
8294,4739.2,-9463.9,-1650.6,6777.2,570.9,9160.4,7555.3
8296.3,4740.1,-9461.7,-1649.3,6778.9,571.5,9161.9,7556.4
8296.1,4739.8,-9460,-1646.7,6782.6,575.1,9165.8,7560.6
8297.4,4743.1,-9457.1,-1643.2,6786.2,578.9,9169.5,7565.1
8297.8,4743.4,-9454.9,-1643.3,6786.6,579.3,9169.8,7565.7
8292.3,4741.7,-9450.6,-1645.7,6784.8,577.4,9168.3,7563.6
8289.6,4738.6,-9454.2,-1649.3,6782.5,574.4,9166.5,7560.5
8294.3,4737.7,-9466.3,-1651.4,6782.4,573.7,9165.8,7558.9
8295.9,4737.5,-9463.5,-1649.3,6779.5,570.5,9162,7555.7
8296.5,4738.1,-9460.7,-1647.7,6776.2,567.8,9159.5,7553.3
8300.8,4738.2,-9457.1,-1644.5,6778.1,568.6,9161.2,7554.9
8307.7,4738.5,-9451.4,-1641,6779.6,568.4,9161.7,7554.9
8307.5,4741.9,-9450.4,-1641.1,6780.5,567.8,9163,7554
8306.4,4742.9,-9450.6,-1641.7,6779.9,567.6,9162.8,7554.3
8299.9,4744.1,-9454.8,-1641.6,6777,565.5,9160.6,7551.6
8295.7,4739.4,-9458.7,-1643.1,6774.2,560.5,9157.8,7547
8295.1,4731,-9458.7,-1648.9,6767.9,553.9,9152.1,7540.1
8295.1,4731.5,-9459.3,-1649,6766.1,553.3,9150.4,7539
8301.3,4733.6,-9456.8,-1648,6768.8,555.7,9152.4,7540.9
8306.5,4735.8,-9453.9,-1646.9,6771.2,555.3,9153.5,7541.2
8305.4,4735.7,-9453.5,-1647.9,6775.2,557,9156.2,7543.2
8301.5,4738.4,-9454.9,-1646.4,6779,560.3,9160.4,7546.9
8300.9,4737.8,-9454,-1645.4,6777.9,559.7,9158.9,7545.2
8302.2,4735.5,-9452.6,-1645.8,6779.6,562.9,9160.2,7547.2
8304.9,4733.9,-9456.4,-1647.3,6779.1,561.7,9159.7,7546.8
8303.5,4735.9,-9458.9,-1649.5,6776.7,559.2,9157.6,7543.9
8303.1,4740,-9458.6,-1649.1,6776.6,558,9157.6,7542.9
8306.7,4739.4,-9458,-1646.3,6776.6,555.7,9157.8,7541.8
8304.1,4738,-9458.7,-1643.5,6778.3,557.9,9159.4,7543.9
8304,4738.8,-9457.5,-1640.8,6780.5,560.8,9161.9,7546.6
8303.8,4738.1,-9457.8,-1642.7,6782.1,563.2,9164.4,7548.7
8298.2,4741.9,-9460.5,-1645.4,6784.8,567,9167.4,7553.4
8300.2,4741.7,-9458.5,-1645.9,6782.9,565.1,9164.5,7551.2
8303,4736,-9458.6,-1648.4,6778.3,560.9,9159.6,7546
8297.4,4732.8,-9462,-1648.8,6778.2,561.5,9160.1,7546.4
8300.2,4736,-9460.6,-1645.3,6780.9,564.3,9162.8,7549.8
8302.5,4737.4,-9459.1,-1643.1,6782.9,566.6,9164.3,7552.5
8304.5,4741.1,-9457,-1640.3,6784.6,569.8,9166.6,7556
8304.1,4741.6,-9457.8,-1641.4,6785.4,571.2,9167.6,7556.9
8303.2,4742,-9460,-1645.1,6787.1,573.1,9169.6,7558.4
8304.5,4741.4,-9459,-1644.3,6786.4,572,9168.4,7556.9
8302.6,4738.8,-9459.3,-1644.9,6782.4,568.8,9164,7553.7
8303.9,4737.7,-9458.2,-1645,6778.5,566.6,9160.7,7551.6
8308.2,4734.9,-9454.9,-1645.3,6776.1,565.3,9158.7,7550.3
8306.5,4733.6,-9455.5,-1645.6,6777.2,568.3,9160.3,7552.9
8306.5,4736.8,-9455.8,-1644.3,6779.5,572.3,9164.1,7557
8304.4,4738.7,-9456.6,-1642.4,6783.1,574.9,9167.7,7560.5
8302.9,4739.6,-9458.2,-1638.4,6782.6,573.2,9166.4,7559.8
8312,4732.5,-9455.9,-1643.7,6778.2,569.2,9161.4,7554.7
8301.6,4732.2,-9458.4,-1646.2,6777.1,568.8,9161.1,7553.8
8299.2,4733.4,-9460.2,-1646.7,6774.7,566.8,9159.4,7551.2
8303.7,4732.7,-9460.4,-1647.9,6772.3,562.5,9155.8,7546.2
8302,4731.6,-9460.6,-1648.9,6774.4,564,9157.6,7547.8
8301.7,4732.7,-9459.2,-1648.1,6776.5,566.9,9160.5,7550.8
8305.7,4737.4,-9454.2,-1645.8,6779.8,569.6,9162.9,7553.1
8309.6,4743,-9448.4,-1643,6784.5,576.3,9166.9,7558.7
8311.5,4748,-9449.5,-1637.3,6785.6,576.6,9167.8,7560.7
8314.6,4743.6,-9450.7,-1637.5,6782.5,571.8,9164.7,7555.6
8310.5,4739.5,-9454.4,-1639,6781.3,569.3,9163.7,7553.3
8305.3,4737.3,-9459.8,-1639.6,6776.4,563.7,9159.2,7547.8
8303.2,4736.3,-9460.5,-1639.6,6773.6,562.1,9156.7,7545.5
8307.1,4735.9,-9459.1,-1640.1,6775.9,565.1,9159.5,7547.9
8305.9,4738.2,-9461,-1642,6779.7,567.9,9163.1,7550.9
8305.2,4746,-9459.3,-1641.6,6786.6,574.7,9170.3,7558.7
8308.4,4749.2,-9455.3,-1637.6,6787.9,575.8,9171.5,7559.3
8308.7,4747.7,-9454.8,-1638.1,6786.1,572.1,9169.4,7555.2
8309.7,4746.9,-9453.3,-1640.1,6783.3,568.6,9166.7,7551.7
8307.6,4741.3,-9454.9,-1642.6,6781.8,566.4,9164.5,7548.9
8305.1,4739.4,-9458.4,-1642.3,6779.1,565.1,9161.5,7547.2
8306.2,4738.5,-9458,-1643.3,6779.4,568.2,9163.1,7549.9
8302.8,4739.3,-9459.7,-1644.8,6781.9,570.8,9165.3,7552.4
8306.4,4744,-9457.9,-1643.5,6785.7,574.5,9168.3,7557.7
8311.7,4745.2,-9454.7,-1640.1,6786.9,575.2,9169.5,7558.8
8312,4743.6,-9454.6,-1639.9,6785.3,573.8,9168.5,7557.6
8311.7,4741.3,-9455.4,-1640.9,6782.8,571.6,9166.2,7555.6
8310.9,4738.7,-9456.7,-1641.5,6775.7,565.9,9160.1,7549.9
8302.5,4735.4,-9461.5,-1645.3,6772.9,563.6,9157.6,7547.6
8303.9,4735,-9461.5,-1646.2,6773.8,563.8,9157.1,7547.7
8303,4737,-9461.7,-1644.7,6774,565.3,9157.8,7549.9
8298.3,4739.4,-9464.8,-1641.2,6776.1,567.1,9161,7552
8302.9,4738.7,-9462.4,-1641.5,6779.4,568.1,9162.8,7553.1
8305,4737.2,-9460.8,-1642.4,6780.5,569.3,9163.7,7554.7
8307.5,4735.8,-9459.4,-1644.5,6779.1,568.9,9162.7,7553.4
8312,4734,-9458.8,-1648.9,6774,563.5,9157.5,7547.8
8305.6,4732.1,-9463.5,-1654.1,6771,560.6,9154.8,7544.4
8309.6,4730,-9464.4,-1654.3,6769.9,558.9,9152.9,7542.1
8307.7,4732.1,-9462,-1649.1,6772.4,561.8,9154.6,7544.3
8303.7,4736.6,-9457.4,-1644.2,6777.5,569.6,9160.4,7550.7
8310.6,4740.8,-9455.6,-1640.9,6784.6,575,9168.2,7557.2
8311.9,4741,-9455.2,-1639.3,6787.7,576.6,9171.5,7559.5
8311.2,4735.5,-9457.7,-1642.1,6788.2,575.8,9172,7559.3
8309.1,4733.4,-9463.6,-1644.4,6784,569.5,9166.7,7552.9
8305.6,4734.5,-9464.4,-1645.7,6778.5,564.6,9160.9,7546.9
8305.7,4733.4,-9462.8,-1647.1,6773.1,560.9,9155.9,7542.5
8303.4,4735.2,-9465.9,-1648.3,6772.9,561.2,9156.4,7542.3
8301.6,4745.1,-9465.8,-1646.2,6778.9,568.9,9163.3,7551.2
8309.4,4751.9,-9459.8,-1641,6779.3,572.1,9163.8,7554.7
8313.9,4753.4,-9456.7,-1639.2,6782.3,573.8,9166.6,7556.9
8315.2,4755.5,-9456,-1637.5,6783.7,575.3,9168.4,7558
8314.8,4752.5,-9455.7,-1637.1,6783.5,574.1,9168.5,7557.1
8310.7,4746.9,-9458.3,-1640,6783,572.5,9167.7,7555.5
8309.7,4742.7,-9461,-1643.6,6780.9,569.9,9164.5,7552.1
8305.4,4741.4,-9465.1,-1647.2,6777.2,567,9161.3,7548.1
8301.7,4749.5,-9466.5,-1644.4,6779.7,570.9,9164.9,7551.9
8310.3,4751.3,-9461,-1640.7,6780.4,570.9,9165.1,7552.4
8306.7,4756.7,-9461.6,-1638,6784.9,573.9,9169.2,7556.2
8311.1,4758.8,-9458.1,-1635,6787.9,575.8,9171.6,7559.3
8313.4,4756.3,-9458.6,-1634.2,6785,573,9168.8,7557.4
8308.1,4752.7,-9462.1,-1636.9,6782.3,570.4,9166.3,7556.2
8304.3,4749.4,-9464.4,-1640.2,6779.8,569.7,9164.3,7553.1
8298.4,4749.2,-9467.8,-1642.3,6776.5,566.7,9161.4,7548.6
8294.2,4749.2,-9469.8,-1640.4,6775.7,564.3,9160.3,7547.2
8297.5,4745.6,-9466.2,-1642.9,6774.9,563.9,9159.2,7546.8
8299.8,4746.8,-9463.5,-1643.8,6777.5,565.8,9161.5,7548.5
8305.3,4749.8,-9460,-1642.5,6779.9,568,9164,7551
8309.4,4748.3,-9458,-1641.8,6779.1,567.4,9163.8,7550
8304.9,4744.9,-9461.5,-1643.4,6777.3,565.5,9161.6,7547
8303.9,4744.6,-9462.3,-1644.7,6773,562.7,9157.5,7543.3
8307.1,4741.5,-9461.1,-1648.8,6770,560.9,9154.3,7539.8
8296.6,4744,-9459.2,-1648.2,6773.3,566.3,9158.1,7543.9
8302.9,4747,-9460.7,-1646.7,6776.4,568.1,9161.1,7546.4
8304.9,4750.6,-9460,-1644.9,6778.3,568.6,9163.2,7548.4
8310.9,4752.6,-9458.4,-1644.3,6781.2,568.7,9165.4,7550
8304.5,4753.2,-9458.9,-1642.6,6782.2,567.9,9166.3,7550.6
8299,4747.8,-9457.1,-1642.4,6781.8,568.4,9166.1,7551.2
8305,4746.9,-9466.2,-1643.3,6778.2,567.3,9163.1,7549.3
8301.6,4745.4,-9471.6,-1646.1,6774.5,564.4,9159.5,7545.7
8296.4,4744.5,-9473.3,-1650.9,6775.5,566.4,9160.8,7547.8
8298.4,4747.2,-9470.3,-1648.4,6775.8,567.5,9161,7548.1
8299.9,4749.6,-9469.2,-1643.8,6777.1,568.2,9162.4,7548.9
8300.9,4751.5,-9469.2,-1639.9,6780.6,569.9,9165.3,7551.5
8306.1,4755.2,-9465.3,-1636.6,6784.1,572.7,9168.4,7554.7
8306.3,4755.5,-9462.7,-1637.3,6783.9,572.8,9168.1,7555
8305.2,4756.5,-9462.2,-1638.2,6781.4,570.4,9165.4,7552.6
8301.8,4751.1,-9464.9,-1640.6,6779.5,568.9,9163.7,7551.3
8298.5,4748.1,-9467.9,-1644,6778.9,568.4,9163.4,7550.9
8295.7,4747.5,-9468.5,-1642.6,6777.3,566.9,9162.1,7548.6
8297.8,4748.4,-9467.2,-1640.7,6776.8,566.4,9161.1,7548.4
8299.3,4751.8,-9466,-1639.1,6777.4,567.6,9162.1,7550.1
8304.2,4752.2,-9462,-1638.3,6779.3,568.1,9164.1,7551.4
8303.5,4753.9,-9461.6,-1638.5,6782,570.4,9167.2,7554.5
8302.7,4754.6,-9462.9,-1639.7,6782.3,570.8,9167.3,7555.1
8297.3,4752.4,-9467.4,-1641.2,6780.9,569.6,9165.7,7553.2
8288.9,4748.1,-9471.8,-1641.9,6778.2,566.5,9162.4,7549.2
8290.6,4742.5,-9472.7,-1647.2,6772.8,561.3,9156.1,7543.9
8290.3,4741.7,-9472.9,-1648.3,6773.1,561.7,9156.6,7543.2
8295.1,4744.2,-9469.9,-1646.2,6775,562.6,9158.5,7544.3
8298.8,4744.2,-9467.1,-1645,6776.7,563.5,9159.9,7545.9
8298.3,4745,-9466.4,-1644.7,6779.7,567.5,9163.3,7550.5
8299.7,4749.1,-9464.5,-1645.1,6781.9,569.6,9165.5,7552.5
8304.1,4748.7,-9462,-1647.7,6780.8,568.8,9164.1,7550.6
8309.7,4746.1,-9457.1,-1647.5,6779.1,568.9,9162.8,7549.3
8292.5,4751.2,-9463.5,-1642.7,6782.9,569.8,9166.2,7551.8
8293.7,4747.3,-9465.9,-1643.6,6781.2,565.8,9163.8,7548.2
8294.8,4746.2,-9466.9,-1642.4,6781.6,564.4,9164.8,7547.8
8296.5,4747,-9468.2,-1639.9,6780.8,562.7,9164.4,7546.4
8298,4747,-9467.1,-1638.7,6780.4,563,9164.1,7546.8
8301.6,4747.7,-9463.9,-1639.1,6783.2,565.2,9166.8,7548.1
8298.7,4748.9,-9465.3,-1641.2,6784.5,566.1,9168.3,7548.9
8293.4,4751.5,-9469.1,-1643,6787.4,569.2,9170.5,7551.6
8293.1,4751.1,-9465.8,-1641.1,6784.6,567.6,9168.2,7549.6
8288.8,4749,-9460.1,-1640.9,6780,564.1,9164.8,7546.3
8292.1,4745.8,-9464.4,-1641.1,6779.4,562.7,9163.6,7544.8
8300.7,4745.3,-9469.7,-1639.2,6782.8,565.3,9166.4,7547.2
8300.6,4747,-9468,-1638,6785.6,568.3,9169.7,7550.2
8302.1,4752.8,-9467.3,-1636.4,6787.8,570.4,9171.7,7552.4
8303.5,4754.3,-9465.7,-1638.1,6789.3,571.6,9172.9,7553.7
8304.8,4754,-9466.1,-1640.4,6789.7,572.2,9173.1,7554.6
8301,4752.3,-9466.9,-1640.8,6790.7,573.5,9174.4,7555.9
8296.5,4746.6,-9469.8,-1643.1,6790.8,573.3,9173.9,7555.2
8295.7,4738.7,-9471.4,-1645.7,6788,571.9,9170.7,7553.9
8293.7,4736.5,-9473.6,-1646.6,6785.7,570.8,9169.1,7554.2
8287.9,4742,-9475.1,-1646.2,6787.1,573.2,9170.7,7557.8
8290.4,4747.2,-9473.1,-1643.7,6787.3,575.1,9170.9,7559.6
8291.1,4752,-9472.3,-1640.6,6788.6,577.4,9173.2,7562.8
8291,4755.5,-9472.8,-1638.3,6784.9,573.7,9169.1,7560.3
8292.1,4754.7,-9472.4,-1642.2,6780.7,570.2,9164.9,7555.8
8291.2,4757,-9471.2,-1642.6,6778.5,568.6,9162.3,7553.6
8297.7,4755.4,-9468.3,-1643,6776,564.8,9158.5,7549.3
8303.7,4750.8,-9467.6,-1642.6,6771.5,559.9,9154,7544.2
8287,4752.1,-9471.1,-1639.3,6775.7,563.8,9158.9,7548.2
8286.3,4752.4,-9470.3,-1639.1,6780.4,567.9,9163.4,7552.3
8295.8,4754.6,-9464.2,-1637.9,6781.5,569.2,9163.8,7553.6
8294.6,4766.1,-9459.8,-1632.7,6785,575,9168.7,7559
8295.5,4769.6,-9462.9,-1630.9,6784.5,575.1,9168.6,7560
8292.6,4767.1,-9465.8,-1631.9,6783.9,572.8,9166.9,7558
8291.1,4764.2,-9468.7,-1633.5,6781.9,569.3,9164.6,7554.7
8288.6,4758.2,-9473.3,-1636,6777.4,564.2,9159.8,7549.9
8285,4752.9,-9474.7,-1638,6776.8,563.5,9159.1,7549
8287.3,4757.7,-9473.2,-1636.6,6779.4,565,9161.1,7549.9
8290,4761.5,-9472.7,-1637,6780.6,565.8,9162.3,7550.7
8290.1,4770.6,-9470.6,-1634.6,6785.9,572.6,9168.6,7558
8293.4,4772.5,-9466.2,-1630.8,6787.8,574.4,9171.1,7559.3
8293.5,4766.5,-9466.6,-1633.5,6787.8,573.1,9170.9,7557.5
8289.4,4766.5,-9469.1,-1634.8,6787.2,570.9,9169,7555.6
8288.9,4764.3,-9470.6,-1635.3,6783.4,566.9,9164.6,7551.7
8286.9,4761.7,-9472.2,-1637.3,6781.7,565.5,9162.4,7549.6
8287.9,4761.5,-9471.5,-1637.8,6782.7,566.8,9163.2,7550.6
8286.3,4762.7,-9471.1,-1638,6784.8,569.1,9165.8,7552.7
8290.7,4768.1,-9468.6,-1635.8,6787.9,573.5,9169.7,7557.4
8293.3,4772.2,-9465.3,-1630.8,6788.9,575.7,9171.6,7560.4
8292.1,4770.5,-9465.7,-1631.3,6788.5,574.6,9172,7559
8293.1,4766.8,-9466.1,-1634.2,6786.7,571.3,9169.1,7554.8
8292.9,4764.4,-9467.2,-1635.3,6782.2,566.6,9164.7,7549.3
8287.2,4760.7,-9470.5,-1637,6777.4,563.5,9160.2,7546
8287.9,4759,-9470,-1638.7,6778,564.3,9160.8,7546.6
8286.8,4762.7,-9468.9,-1637,6780.3,566.2,9163.6,7548.5
8284.5,4763.8,-9469.4,-1633.9,6781.8,566.5,9164.8,7549.2
8289.1,4764.4,-9460.4,-1633.8,6783,568,9166.3,7550.8
8292.3,4764,-9455.9,-1634.1,6782.7,568.4,9166.2,7551.3
8292.2,4764.8,-9465.2,-1636.4,6783.4,569.9,9167.4,7552.8
8292.9,4762.7,-9466.4,-1638,6779.8,566.6,9163.9,7550.4
8286.3,4758,-9468.8,-1639.7,6776.2,564.1,9160.4,7548.3
8280.8,4757.2,-9470.3,-1640.7,6774.7,563.1,9158.7,7547
8276.6,4755.2,-9468.4,-1639.2,6778.6,567.2,9161.4,7550.6
8272.2,4755.8,-9465.5,-1636.6,6786.5,575.7,9168.5,7557.9
8270,4757.7,-9468.5,-1634.1,6794.7,581.4,9176.8,7564.8
8274.1,4753.8,-9467.9,-1634.6,6798.3,582.9,9180.2,7567.1
8283,4750,-9466.5,-1638.7,6795.9,577.4,9177.3,7561.7
8296.5,4750.8,-9463.9,-1642.3,6786,566.5,9167.2,7550.5
8300.3,4755,-9462.3,-1642.5,6777.1,559.2,9157.6,7542.5
8295.5,4754.1,-9464.3,-1643.3,6773.7,555.4,9153.7,7538.2
8291.1,4750.2,-9466.4,-1646.8,6775.3,558.3,9156.1,7541.7
8287.4,4752.6,-9468,-1646.9,6782.4,567.7,9164.2,7551.8
8292,4751.4,-9463.3,-1643.8,6788.3,572.8,9170.1,7557
8297.5,4751.2,-9460.1,-1641,6791.3,574.7,9173.1,7560
8300.8,4753.4,-9458.4,-1638.9,6790.3,574.2,9172.8,7560.5
8300.8,4749.5,-9459,-1640.5,6789.1,572.7,9171.9,7559.4
8298.3,4742.4,-9461.6,-1645.8,6788.7,571.7,9171.8,7558.9
8297.3,4740.5,-9463.8,-1647.4,6785,568.3,9167.6,7554.8
8297.2,4736.6,-9465.9,-1651.8,6781.4,565.8,9163.6,7551.5
8298.6,4736.4,-9467.5,-1653.6,6785,569.7,9167.3,7554.5
8304.6,4737,-9463,-1649.5,6789.2,572.6,9171.3,7556.5
8307.2,4738,-9458.7,-1647,6791.5,574.2,9173.5,7558.7
8309.9,4738.2,-9455.6,-1645.9,6792.7,575.5,9175.8,7560.8
8310.9,4732.9,-9454.9,-1648.6,6792.7,574.6,9176.3,7559.9
8309.1,4728.5,-9456.3,-1651.1,6790.6,573.2,9173.7,7557.4
8309.9,4726,-9457.1,-1652.5,6785.8,571.3,9169.1,7554.9
8306.5,4721.7,-9459.3,-1653.2,6782.1,569.5,9165.4,7552.9
8300.4,4718.5,-9462.4,-1651.7,6782.9,569.2,9165.5,7552.2
8302.2,4716.6,-9460.9,-1654,6785.1,570.1,9166.8,7553.4
8311.1,4715.7,-9456.3,-1655.2,6786.6,571,9168.3,7554.7
8326.5,4717.4,-9449.9,-1653.2,6786.8,572.1,9169,7555.7
8325.1,4724.4,-9447.3,-1648.6,6787.1,571.3,9169,7554.5
8320.6,4721.2,-9450.3,-1650.5,6787,570.8,9169.4,7553.8
8317.8,4717.5,-9452.8,-1653,6785.8,570.4,9167.9,7552.7
8313,4712.1,-9453.4,-1655.1,6783.4,569.3,9164.6,7549.8
8316.7,4714,-9448.7,-1654.6,6782.7,570.7,9164.2,7549.4
8320.9,4719.7,-9449.3,-1652.4,6785.5,571.1,9167.5,7550.9
8323,4720.6,-9449,-1650.2,6789.4,573.1,9172,7554.4
8326.9,4719.1,-9448.9,-1649.7,6792.1,575.1,9175,7557.3
8334,4717,-9448.1,-1650.7,6790.6,572.7,9173.8,7555.6
8328.7,4717.4,-9449.7,-1651.8,6788.5,569.8,9171,7552.6
8329.1,4715.6,-9450.4,-1653.6,6785.8,567.1,9167.9,7549.3
8325.4,4711.5,-9453.7,-1657.5,6784.4,566.2,9166.7,7548.4
8320.5,4709.7,-9457.3,-1661.6,6786.5,568.8,9168.8,7551.1
8324.5,4708.1,-9454.9,-1660.2,6787.3,569.6,9169.5,7551.1
8329.2,4709.3,-9452.2,-1657.6,6786.4,568,9169.2,7549.2
8332.9,4711.8,-9449,-1655.4,6788.3,570.1,9171.6,7551.2
8334.5,4713.1,-9447.8,-1651.8,6792,573.8,9174.9,7555.5
8335,4711.9,-9448,-1651.9,6792.5,574.3,9175.3,7556.3
8335.7,4711.1,-9448.3,-1654.1,6791.4,573.4,9174.5,7555.1
8332.5,4707.1,-9451.9,-1658.7,6787,569.7,9169.9,7550.3
8330.5,4701.7,-9453.3,-1663.9,6787.8,571.1,9170.9,7551.5
8324.1,4697.8,-9449.7,-1663.4,6785.6,569.3,9168.7,7549.7
8318.6,4696.5,-9451.3,-1664.6,6786.7,569.6,9169.4,7550.8
8329,4699.6,-9457.9,-1664.4,6789.4,571.4,9171.4,7552.9
8334.9,4699.5,-9451.6,-1660.7,6787.9,571,9170.3,7553
8337.5,4700.3,-9446.6,-1659.5,6787.4,571.6,9170.1,7555.1
8335.1,4700.4,-9447.6,-1658.7,6788.7,572,9171.7,7555.2
8330.8,4700.1,-9450.9,-1658.7,6786.5,570.5,9169.5,7553.1
8322.4,4698.3,-9456,-1659.4,6783,567.4,9166.3,7550.7
8322.4,4693.3,-9457,-1665.7,6779.2,562.9,9162.3,7545.6
8322.6,4689.4,-9457.8,-1669.5,6779.6,562.6,9162.9,7544.5
8332.1,4688.6,-9454.9,-1669,6780.7,564.1,9164,7545.5
8335.8,4690.6,-9452.3,-1666.4,6781.9,565.5,9165.7,7546.7
8326.4,4695.7,-9453.8,-1663.1,6785.9,570.5,9170.1,7552.2
8331.9,4699.4,-9452.4,-1662,6787.6,571.8,9172.3,7554.1
8329.8,4698.5,-9451.8,-1661.6,6787.8,572,9171.8,7553.4
8331.3,4695.8,-9446,-1661.1,6789.6,575.7,9173.3,7554.6
8330,4699.1,-9449.3,-1659.7,6788.1,574.5,9173.6,7553.6
8324.7,4698.1,-9453.6,-1659.5,6786.7,572.6,9172.3,7552
8329,4698.5,-9452.8,-1659.2,6786.3,571.8,9172.1,7551.7
8335.7,4700.6,-9452.1,-1657.2,6785.1,569.2,9171.2,7550
8333.7,4700,-9451.5,-1656.5,6786.5,569.9,9172.5,7551.5
8332.8,4702.3,-9450.7,-1654.7,6789.6,572.9,9176.1,7555.5
8330.4,4703.1,-9453,-1656.3,6789.7,573.3,9176.5,7555.7
8326.6,4707.2,-9455.2,-1658.5,6790.3,574.3,9176.5,7556.9
8328.6,4705.7,-9452.9,-1659.8,6789.2,573.1,9174.4,7555.3
8326.3,4701,-9454.4,-1661.3,6786.2,569.6,9171.3,7551.9
8326.8,4697.6,-9454.4,-1662.3,6785.7,567.5,9170.4,7550.2
8330.8,4696.8,-9451.5,-1662,6786.7,568.2,9171.2,7551.1
8327.7,4701,-9452.8,-1659.8,6786.3,569.5,9171.7,7552.2
8330.8,4704.2,-9450.5,-1657.4,6786.6,570.9,9172.9,7553.8
8332.1,4704.5,-9449.8,-1657.9,6788.2,570.5,9173.6,7553.1
8332.2,4702.2,-9450.8,-1662.5,6791,572.5,9175.8,7554.3
8333.2,4702.1,-9449.5,-1663.6,6790.4,570.7,9174.3,7552
8332.1,4698.7,-9449.8,-1666.6,6787.4,566.7,9171,7547.6
8331.8,4693.3,-9451.5,-1667.3,6784.1,562.8,9167.7,7542.7
8334.7,4691.1,-9450.5,-1665,6782.3,561,9165.6,7540.7
8337.6,4689.2,-9449.2,-1665.9,6783,562.7,9166.7,7542.3
8328.5,4693.6,-9444.8,-1663.6,6786,566.7,9169.8,7546.3
8318.3,4697.5,-9447,-1661.6,6791.4,571.4,9175.6,7551.9
8322.8,4696.9,-9459.7,-1660.3,6790.4,569.8,9174.7,7551.1
8326.6,4694.4,-9456.6,-1662.4,6786.2,566.9,9169.8,7547.9
8326.4,4692.8,-9454.1,-1666.4,6784.4,566.6,9167.6,7546.4
8328.8,4688.6,-9452.6,-1669.9,6782.5,564.8,9165.6,7543.2
8325.1,4684.7,-9455.1,-1671.7,6780.7,562.4,9164,7541
8321.7,4685.1,-9456,-1671.5,6780.9,564.1,9164.7,7544.3
8324.4,4688.5,-9453.6,-1668.7,6784.6,567.9,9169.3,7548.9
8327.5,4693.4,-9449.4,-1664.8,6787.5,570.9,9172,7551.5
8328.9,4696.1,-9443.9,-1661.7,6792,576.6,9175.9,7556.4
8329,4697.8,-9445.6,-1661.3,6795.8,578.8,9179.2,7559
8331.6,4694.6,-9446.9,-1663.1,6794.3,576.1,9177.1,7556.6
8328.8,4692.9,-9449.8,-1664.8,6791.1,571.1,9173.8,7553.3
8326.3,4687.3,-9453,-1668.3,6786.2,564.7,9168.9,7548.5
8326.1,4685.8,-9451.9,-1669.3,6782.7,562.8,9165.6,7547.1
8322.4,4689.1,-9451.4,-1668.8,6785.3,565.7,9168.1,7550.6
8321.4,4691.3,-9452.5,-1669.6,6788.1,567.9,9171.4,7553.1
8321.4,4697,-9451.8,-1667.9,6794.6,575.1,9178.5,7560.8
8327,4699.8,-9448.1,-1663.7,6794.8,576.1,9179,7561.8
8329.2,4696.5,-9448.5,-1665.3,6791.4,573.4,9175.9,7559.9
8325.8,4694.8,-9453,-1667,6788.8,569.7,9172.5,7556.1
8323.6,4691.5,-9455.5,-1668.8,6785.5,566.4,9169.1,7552.4
8322.4,4688.6,-9455.8,-1670.5,6783.2,564.6,9166,7549.9
8322.2,4690.8,-9454.8,-1670.8,6783.1,565,9165.6,7550.4
8321.9,4694.6,-9453.8,-1670.6,6783.9,565.4,9166.3,7550.9
8325.4,4698.6,-9450.6,-1668.2,6787.1,568.4,9169.8,7553.8
8327.1,4701.5,-9450.1,-1663.3,6788.7,569.7,9172.3,7555.7
8327.4,4700.8,-9450.1,-1661.7,6788.5,569.1,9172.7,7554.9
8328.5,4698.4,-9449.7,-1661.2,6785.6,565.7,9169.5,7551.7
8330.3,4692.8,-9449.7,-1662.2,6777.3,559,9161.4,7544.6
8324.5,4690.7,-9452.5,-1666.1,6773.3,556.6,9157.3,7542.8
8321.6,4691.4,-9453.3,-1667.8,6774.5,557.5,9158.5,7543.2
8321.6,4692.1,-9453.3,-1666.9,6777.4,560.4,9162.2,7545.4
8323.8,4693.1,-9454.4,-1663.9,6778.5,560.8,9163.1,7546.3
8321.9,4693.8,-9452.7,-1663.7,6780,563.1,9165.4,7548.9
8321.8,4694.7,-9453.1,-1663.7,6782.3,565.2,9168.1,7550.7
8326.2,4693.9,-9452.3,-1665.4,6780.7,563.6,9166,7548.4
8328.8,4691.3,-9451.9,-1668.5,6774.7,558.6,9159.9,7543.1
8325.9,4688.9,-9454.4,-1672.8,6768.9,555.7,9155.1,7539.1
8317.9,4688.5,-9456.6,-1674.6,6769.6,558.3,9155.5,7540.9
8314,4688.3,-9449.9,-1673.1,6772.1,561.1,9157.8,7543.5
8318.8,4689.8,-9448.2,-1670.4,6777.6,567.5,9163.9,7549.5
8328.8,4694.4,-9453.6,-1666.3,6783.7,571.3,9169.7,7555
8332.4,4697,-9448.9,-1663.3,6787,572.9,9172.2,7557.5
8335.5,4697.7,-9447.8,-1664.1,6786.5,572.2,9172.3,7556.8
8329.2,4694.5,-9452.9,-1666,6784,568.9,9170.1,7554.7
8323.1,4689.1,-9456.8,-1670.1,6781.2,567.3,9166.9,7552.9
8321.6,4687.1,-9458.2,-1674.1,6779.4,566.4,9164.1,7551.1
8319,4687.3,-9460.2,-1675.5,6777.9,567,9163.6,7551.5
8317.9,4694.3,-9459.8,-1674.2,6783.3,573.2,9170.6,7559
8323.6,4700.5,-9454.6,-1667.9,6786.9,576.9,9175,7562.4
8328.6,4703.2,-9451.8,-1663.7,6790.1,578.8,9177.8,7564
8332.4,4705,-9449.7,-1664.7,6793.6,579.9,9180.9,7565.7
8331.1,4705.5,-9449.7,-1665.2,6791.9,577.5,9178.9,7564.3
8325.6,4701.3,-9452.6,-1664.9,6789,575.1,9175.4,7561.3
8326.4,4697,-9453.5,-1665.7,6785.8,572.2,9172.4,7557.8
8321.1,4695.6,-9459.3,-1668.1,6784,571,9170.9,7555.4
8319.8,4698.5,-9461.5,-1669,6787.6,574.6,9174.3,7558.7
8325.6,4699.8,-9456.8,-1666.4,6791,576.8,9177.6,7560.6
8324.5,4702.9,-9453.9,-1661.6,6794.4,579.3,9180.8,7564.7
8329.1,4706.3,-9450.2,-1658.1,6796.1,580,9181.9,7566.4
8335.6,4702.9,-9446.8,-1659,6793.4,576.8,9177.9,7563.6
8329.6,4701,-9448.7,-1663.3,6791.3,575.1,9175.8,7562.2
8327,4699.3,-9450.2,-1666.1,6789,572.6,9174,7559.1
8324.3,4695.4,-9453.5,-1667.3,6785.5,569.4,9171.3,7555.1
8320.8,4693.2,-9456.1,-1667.3,6783.4,567.5,9170.5,7553.5
8315.9,4692.8,-9455.1,-1668.7,6785.1,568.9,9172.7,7555.2
8323.4,4694,-9451.9,-1669.9,6788.3,571.9,9176,7557.5
8328.9,4697.5,-9449,-1669.4,6789.8,573.5,9177.4,7558.7
8333.4,4699.8,-9447.4,-1667.1,6787.6,572,9176.3,7557.3
8327.8,4697.5,-9451.2,-1668.7,6786.1,570.4,9175,7555.6
8327.1,4693.2,-9453.5,-1671.6,6785.8,568.2,9173.8,7552.5
8322.1,4691.2,-9454.7,-1672.5,6784.8,566.2,9171.7,7549.7
8323.6,4689.8,-9451.4,-1672.2,6784.3,568,9171.7,7550.1
8326,4692.7,-9452.2,-1669.7,6786.5,568.5,9174.3,7551.3
8327.9,4697,-9451.3,-1667.3,6788.2,569,9175.4,7553.8
8331.9,4700.1,-9449.1,-1666.9,6792,571.9,9179.4,7558.3
8333.7,4699.5,-9449.6,-1666.6,6792.1,570,9179,7557.6
8330.9,4696.9,-9450.5,-1668.2,6791.5,569.5,9178.4,7556.6
8327.3,4694,-9453.3,-1672.4,6788.4,566.7,9174.8,7552.3
8324.1,4693.6,-9455.6,-1676.4,6784.9,565.1,9171.2,7550.9
8317.1,4694.9,-9459.7,-1677,6784.4,566.3,9171,7552.8
8320.1,4695.5,-9456.8,-1672.7,6782.1,565.2,9169,7551.5
8327.1,4696.4,-9453.7,-1669.1,6780.1,564.9,9167.5,7551.4
8331.5,4699.7,-9450.9,-1665.9,6782.7,567.3,9170.4,7554.8
8330.6,4702.2,-9449.6,-1665,6786.1,569.4,9173.1,7558.5
8329,4705.1,-9448.7,-1664.6,6788.5,570.5,9174.9,7560
8328.5,4704.3,-9448.6,-1664.1,6785.8,568.1,9171.5,7557.6
8323.9,4698.6,-9452.9,-1666.9,6781.6,565.4,9166.9,7554.9
8320.2,4697.6,-9456.7,-1669.9,6780.1,564.8,9165.3,7554.1
8319.7,4696.1,-9454.2,-1669.9,6778.6,562.2,9163.3,7551.4
8317.5,4696.5,-9448.7,-1670,6779.3,561.4,9164.1,7551
8319.6,4699.6,-9454.3,-1667.7,6784.6,565.9,9169.4,7555.8
8331,4698.7,-9455.6,-1666,6782.8,564.6,9166.9,7554.8
8326.9,4698.7,-9453.6,-1665.6,6784.6,565.8,9169.2,7556.3
8320.1,4697.7,-9455.9,-1665.9,6787.3,568.6,9172.3,7559.4
8319.1,4694.7,-9458.9,-1666,6783.5,567.9,9169.2,7558.3
8322.3,4687.2,-9461.6,-1669.1,6779.9,563,9165.1,7551.7
8318.8,4682.4,-9461.6,-1675.2,6776,559,9160.2,7545.7
8324.4,4685.4,-9459.6,-1675.9,6772.4,557,9156.6,7542.4
8325.3,4691.3,-9458.2,-1672.3,6774.9,558.4,9159.4,7543.6
8328.5,4691.6,-9456.1,-1670.8,6777.7,559.3,9161.9,7544.9
8326.2,4693.5,-9456.4,-1667.7,6780.7,562,9164.9,7548.4
8328.3,4696.3,-9454.9,-1667.1,6784,564.9,9168.8,7551.5
8329.9,4695.8,-9452.2,-1668.8,6784.2,565,9168.6,7550.6
8329.9,4696.2,-9448.4,-1668.6,6785,567.4,9169.7,7551.5
8331.9,4695.8,-9450.4,-1669.9,6783.9,565.7,9168.5,7550.9
8328.5,4692.4,-9454.8,-1672.6,6782.9,564,9167.3,7550.1
8332.9,4690.5,-9453.6,-1672.7,6781,563.8,9166.3,7550.9
8334.3,4692,-9454.7,-1671.5,6781.3,561.9,9166.1,7550.8
8335.2,4692.2,-9453,-1671,6782.1,562.9,9167.1,7551.2
8334.5,4694.7,-9449,-1670.6,6784.9,565.7,9170.3,7554.4
8330.5,4693.8,-9449.8,-1673.3,6785.7,566.2,9171.5,7555.4
8329,4695.5,-9451.2,-1675.5,6789.2,569.4,9174.1,7559.3
8328.7,4695.9,-9451.9,-1672.9,6788.9,568.9,9173.6,7558.2
8327.3,4691.6,-9453.6,-1673,6784.8,563.7,9169.5,7552.6
8327.7,4692,-9452.7,-1672.8,6782.7,562.6,9168,7551
8332.8,4694.7,-9450.6,-1674.1,6784.1,564.2,9169.1,7552.3
8331.2,4696.1,-9451.4,-1672.5,6787.4,566.8,9172.4,7554.8
8333.7,4698.8,-9449.5,-1668.1,6790.6,569.3,9175.3,7557.5
8335.8,4699.4,-9449,-1667.5,6792,570.1,9176.5,7558.5
8332.2,4698.1,-9453.2,-1668.7,6794.2,572.5,9178.5,7560.8
8333.9,4695.1,-9453.7,-1669.3,6794.8,571.7,9178.4,7560.4
8333,4691.5,-9455.1,-1671,6790.2,567.9,9173.9,7556.4
8337.8,4688.1,-9455.5,-1672,6785.9,564.5,9170.2,7552.3
8333.7,4688.4,-9454.9,-1669.6,6785.4,564.1,9170,7552.6
8330.4,4688.7,-9454.4,-1670.9,6784.3,564.1,9169.3,7553.3
8327.5,4692.5,-9450.5,-1670.1,6787.2,566.4,9171.9,7555.5
8321.5,4698.8,-9446.3,-1666.2,6789.8,569.5,9174.9,7558.9
8324.5,4700.3,-9457.2,-1661.4,6786.8,567.2,9172.3,7556.3
8332.5,4688.9,-9456.8,-1668.5,6784.4,564.1,9169.7,7552.1
8331.5,4685.5,-9455,-1671.4,6781.4,561.4,9166.5,7549.5
8329.1,4687.3,-9456.5,-1671.3,6778.5,558.4,9163.5,7546.1
8326.1,4687.7,-9458.1,-1671.8,6776.1,554.6,9161.2,7542.6
8325.4,4689.6,-9458.1,-1671.5,6775.2,555,9160.7,7543.5
8329.2,4690.9,-9455.8,-1671.1,6776.1,557.4,9161.4,7546.6
8332.5,4691.3,-9451.8,-1667.6,6781.2,562.1,9165.7,7550.1
8334,4691.7,-9447,-1665.9,6788,570.7,9172.5,7556.5
8334.5,4688.4,-9448.8,-1668.3,6790.1,573.4,9175.2,7559.9
8332.2,4684.8,-9451.1,-1673.6,6790.4,573.1,9175.5,7560.7
8327.3,4681.6,-9456.2,-1677.4,6789.5,570.9,9174.6,7559.4
8324.7,4677.9,-9463.3,-1678.2,6782.6,562.5,9167.5,7551.8
8318.9,4682.2,-9467.1,-1675.8,6780.4,560.9,9165.3,7549.4
8319.5,4691,-9465.9,-1671.5,6780.3,562.1,9165.8,7549.9
8322.6,4696.2,-9463.7,-1669.8,6782.1,564.5,9167.9,7552.9
8324.3,4707,-9460.7,-1666.3,6789,571.9,9174.1,7561
8330.2,4712.1,-9455.6,-1661.1,6789.8,573.5,9174.5,7562
8330.4,4711,-9455.6,-1661.2,6788.3,573.2,9173.9,7560.4
8325.3,4707.4,-9458,-1662.5,6788.1,573.1,9173.1,7559.9
8323.9,4701,-9458.7,-1666.5,6789.5,573.4,9173.4,7560
8321,4698.3,-9461.1,-1669.2,6788.4,572.1,9172,7557
8321.9,4704.5,-9460.6,-1666.2,6788.6,572.2,9172.6,7556.8
8321.9,4707.6,-9460.7,-1665.3,6788.2,573.1,9173.1,7557.9
8325.1,4710.6,-9458.7,-1664.8,6792,577.9,9177.6,7563.4
8329.5,4711.9,-9454.9,-1662.8,6796.4,580.8,9181.5,7566.8
8329.7,4712.5,-9453.4,-1662.7,6795.5,579.7,9180.5,7566.1
8333.9,4710.9,-9451.7,-1662.7,6791.4,575.5,9176.3,7561.6
8324.3,4705.2,-9454.8,-1663.5,6789.2,573,9174.2,7558.3
8324.8,4699.2,-9455.4,-1667.3,6785.2,569.6,9170,7554.4
8320.5,4699.4,-9457,-1666.8,6784.5,569.9,9169.2,7554.7
8318.5,4702.3,-9458.3,-1664.6,6786.4,571.6,9171,7556.7
8317.7,4706.9,-9459.8,-1660.6,6785.2,570,9170.5,7556.3
8324.9,4709.4,-9456.7,-1660.6,6785.3,569.5,9170.7,7556.2
8326.1,4710.2,-9456.3,-1661.4,6787.4,571.1,9172.7,7557.4
8329,4709.9,-9455.5,-1663.9,6785.4,569.4,9169.7,7555.1
8330.6,4707.1,-9454.8,-1665.2,6779.3,563.4,9162.9,7548.9
8325.1,4702.5,-9457.6,-1667.9,6775.4,560.7,9159.7,7545.6
8324.8,4702.8,-9459.1,-1667.6,6772.3,558.5,9157,7542.8
8325.8,4702.5,-9458.3,-1666.1,6773.1,559.9,9158.1,7543.2
8332,4704.9,-9451.9,-1664.3,6777.5,567.2,9163.8,7549.2
8328.6,4711.2,-9454.5,-1661.6,6784.9,573.3,9171.9,7556.7
8331,4711.8,-9455,-1662.1,6789.7,576.1,9176.3,7560.7
8334.6,4713.6,-9454.1,-1662.9,6788.5,574.6,9174.5,7560.6
8334.4,4708.7,-9457.1,-1665.2,6783.9,568.2,9169.1,7554.5
8328.1,4704.6,-9459.6,-1667.8,6782.4,565.6,9167.2,7551
8326.6,4701.8,-9458.7,-1669.3,6779.6,563.8,9164.9,7547.6
8318.5,4700.4,-9455,-1670.8,6778.9,563.8,9164.2,7547.2
8322.1,4705.8,-9457,-1670.6,6783.7,568.3,9169.5,7552.8
8332.1,4710.1,-9459.4,-1665.5,6788.8,572,9174.2,7556.6
8332.3,4713.5,-9454.9,-1661,6790.2,572.1,9175.9,7557.3
8334.1,4715.2,-9452,-1658.7,6792.3,573.7,9177.7,7560.4
8334.7,4713.3,-9451.8,-1661.3,6792.1,572.8,9176.7,7559.6
8333.6,4711.8,-9453.2,-1667.1,6790.5,570.5,9175,7557.2
8333.2,4707.2,-9454.8,-1670.8,6788.4,567.5,9172.8,7553.8
8330.1,4703,-9459.4,-1672.5,6785.9,564.5,9170.2,7549.9
8332.3,4704.3,-9458.1,-1672.2,6786.7,566.7,9171.3,7551.6
8344.4,4705.7,-9452,-1668.1,6786.5,566.6,9170.8,7552
8335.6,4712,-9451.2,-1662.5,6790.6,570.8,9174.3,7557.5
8342.2,4713.3,-9447.5,-1660.3,6792.1,571.4,9175.1,7557.9
8343.5,4711.5,-9447,-1659.5,6791.2,569.7,9173.9,7555.8
8339.7,4708.9,-9449,-1660.8,6788.5,567.4,9171.5,7553.4
8335.9,4707.7,-9451.8,-1663.5,6786.9,566.6,9169.9,7551.9
8328.2,4704,-9457.2,-1668.4,6784,563.6,9167,7547.9
8323.6,4702.9,-9460.7,-1666.8,6782,560.5,9164.5,7544.2
8329.1,4703.2,-9457.3,-1666.2,6782.6,561.4,9165.5,7545.4
8331.8,4704.2,-9455.2,-1667.5,6786.4,566,9169.6,7550.7
8336.3,4708.3,-9452.3,-1666.2,6787.9,568.3,9171.6,7554.2
8340.9,4710.9,-9449.6,-1664.1,6786.5,566.3,9170.6,7553.2
8337.3,4706.1,-9451.7,-1666.2,6786.3,566.5,9169.8,7553.6
8332.7,4704.2,-9456,-1668.6,6786.1,567.3,9169.1,7553.6
8330.8,4701.1,-9457.5,-1670.5,6783.1,566.1,9166.3,7551
8331.4,4702.9,-9453.4,-1669.1,6782.7,568.8,9167,7552.7
8335.6,4706.1,-9452.1,-1667,6785.5,570.7,9171.1,7556
8339.4,4707.4,-9450.5,-1665.1,6788.3,571.9,9174,7558.6
8342.2,4710.8,-9449,-1661.8,6789.6,572.5,9175.6,7560.9
8340.6,4714.9,-9449.7,-1659.4,6791.5,571.7,9177.7,7560.8
8337.7,4714.5,-9451.9,-1661.8,6790.4,570.2,9176.8,7559.3
8337.5,4711.8,-9452.9,-1663.5,6789.3,568.1,9175.8,7556.9
8336.5,4708.1,-9455.7,-1666.7,6787.5,565.6,9173.7,7553.2
8328.8,4709.8,-9458.7,-1668.5,6789.1,568,9175.1,7555.1
8327.4,4711.8,-9451.4,-1664.3,6787.3,566.7,9172.9,7553
8326.9,4712.1,-9450.4,-1661,6788.7,567.2,9174.3,7554.3
8340,4712.7,-9455.9,-1659.5,6790.5,568.6,9175.7,7556.3
8341.4,4718.3,-9451.1,-1656.2,6793.7,570.9,9178.9,7560.3
8341.5,4718.9,-9449.3,-1655.3,6795.6,572.1,9180.5,7562.8
8342.1,4715.8,-9449.8,-1655.9,6793,569.4,9177.5,7560.4
8337.5,4709.9,-9453.4,-1659.8,6789.2,567.8,9174.1,7558
8333.3,4710.5,-9456.7,-1662.6,6788.7,569.5,9173.6,7558.5
8332.2,4710.5,-9457.8,-1662,6787.4,568.6,9172.9,7557.1
8338.4,4709.2,-9457,-1663.5,6786.9,568,9172.3,7555.7
8341.4,4709.8,-9454.4,-1661.3,6788.2,568.7,9172.4,7556.2
8337.4,4713,-9451.5,-1655.9,6789,570.8,9173.3,7559.4
8339.6,4714.3,-9450,-1655.1,6789.1,571.3,9173.9,7560.5
8339.2,4715.9,-9450.6,-1655.4,6791.6,572.2,9176.1,7560.7
8332.4,4713.2,-9456.3,-1657.7,6791.6,571.3,9175.8,7559.6
8326.8,4710,-9459.5,-1659.1,6788.1,566.8,9171.7,7555.9
8329,4704.5,-9458.5,-1664.6,6782.2,560.1,9165.3,7548.5
8328.6,4703.2,-9458.8,-1666.9,6781.1,558.3,9163.7,7546.4
8332.8,4705.5,-9456.6,-1664.7,6780.9,558.6,9163.9,7547.3
8337.1,4706.4,-9454.3,-1661.9,6782.1,558.5,9164.8,7547.6
8334,4708.3,-9456.6,-1659.8,6786.5,561.6,9168.6,7551
8334.6,4709.7,-9455.1,-1658.8,6789,564.6,9171.7,7554
8334.4,4708.7,-9452.2,-1659.7,6789,565.4,9171.2,7553.4
8332.6,4707.7,-9449,-1661,6789.2,568.1,9171.2,7553.7
8334.3,4708.2,-9449.9,-1661.6,6786.7,566.6,9169.4,7552.8
8332.5,4711.2,-9453,-1659.6,6783.3,564.7,9166.8,7551.2
8333.9,4709.9,-9453.5,-1660.5,6784,563.6,9167.5,7550.7
8333.9,4711.4,-9454.8,-1660,6785,561.8,9168.1,7549.9
8332.7,4712.8,-9453.4,-1658.4,6785.8,562.5,9169.1,7551.1
8333.8,4714.1,-9451.1,-1655.9,6788.4,566.3,9172.4,7554.4
8333.5,4714,-9451.8,-1656.9,6789.2,567.8,9173.5,7555.2
8333.7,4716.8,-9452.6,-1661.4,6792.1,571.1,9176.7,7558.5
8333.1,4717.1,-9452.9,-1661.6,6790.8,569.3,9175,7556
8331.9,4714.4,-9453,-1659.5,6788.7,566.3,9172,7552.9
8331.6,4708.8,-9452.8,-1659.7,6786.7,564.2,9169.9,7550.4
8331.2,4708.5,-9451.7,-1656.1,6788.4,566.6,9172.8,7552.7
8332.3,4710.7,-9450.7,-1654.8,6789.6,567.5,9174.3,7553.5
8335.6,4713.2,-9448.1,-1656.1,6792.9,569.2,9177.2,7555.5
8334.7,4715.4,-9447.5,-1656.8,6796,571.5,9179.3,7557.5
8336.3,4716.1,-9448.7,-1658.2,6796.9,573.3,9180.4,7558.6
8343.4,4714.1,-9447.3,-1659.3,6793.8,571,9177.5,7555.5
8331.6,4711.9,-9450.7,-1658.5,6791.9,569.5,9176.4,7554.9
8331.4,4710.6,-9451.7,-1658.4,6790.2,566.9,9174.9,7552.3
8334.8,4709.9,-9451,-1656.8,6788,564.3,9172.6,7548.8
8337.6,4710.6,-9448.7,-1657.4,6787.3,564.9,9171.5,7549.1
8338.9,4713.3,-9447,-1656,6789.5,566.4,9173.5,7551
8333.6,4717.8,-9451.2,-1652.5,6794.2,570.6,9178.5,7555.8
8330.8,4720.3,-9454.2,-1649.8,6793.7,569,9177.4,7554
8334.4,4715.8,-9452.8,-1654.1,6789.6,566.2,9172.5,7550.5
8330.8,4712,-9454.4,-1657.5,6787.4,565.8,9171.1,7549.8
8330.1,4709.4,-9455.7,-1659,6785.1,563.9,9169.4,7547
8333.4,4706.8,-9455.4,-1659.8,6780.2,560.1,9164.8,7543.1
8332.9,4708.4,-9455.5,-1659.7,6780.6,561.8,9165.1,7544.9
8327.8,4710.7,-9456.5,-1658.2,6785.3,566.7,9170.3,7549.9
8330.1,4712.7,-9451,-1656.4,6787.1,568.8,9172,7551.8
8328.7,4715.5,-9440.2,-1654.7,6792.5,575.3,9177.4,7557.7
8332.9,4718.5,-9440.7,-1653,6794.2,575.3,9178.7,7558.9
8338.5,4716.5,-9451.3,-1654.7,6792.9,572.7,9177.6,7556.2
8334.6,4713.6,-9452.2,-1657,6792.3,570.7,9177.2,7554
8332.7,4707.1,-9455.7,-1660.3,6786.7,564.5,9171.4,7547.9
8330,4704.8,-9457,-1661.8,6784.1,562.7,9169,7545.1
8333,4706.8,-9454,-1661.1,6784.5,562.8,9169.8,7545
8331,4712,-9455.2,-1662.3,6788.7,565.4,9173.5,7548.7
8331.4,4718.6,-9453.6,-1661.3,6794.9,572.3,9179.3,7557.3
8338.1,4718.9,-9447.9,-1656.3,6794.5,572.9,9178.7,7558.2
8336.7,4715.1,-9449.1,-1655.2,6793,570.9,9178.1,7556.5
8331.3,4712.8,-9449.9,-1653.1,6791.4,568.5,9176.3,7554.1
8326.6,4709.4,-9450.2,-1653.2,6787.6,565.4,9171.7,7551.6
8321.1,4704.1,-9455.4,-1658.9,6787.1,564.7,9171.3,7552
8317.9,4700.6,-9457.7,-1662.3,6789,566.4,9173.6,7553.6
8324.6,4698.6,-9454.8,-1665.3,6788.8,565.9,9173.5,7552.6
8337.7,4705.8,-9449.5,-1666.1,6790.8,567.7,9175.8,7553.5
8353.2,4712.8,-9441.3,-1662.8,6789.9,565.6,9174.3,7551.2
8347.2,4720.4,-9440.3,-1658.3,6790.5,564.4,9174.1,7550
8351.7,4717.9,-9439.2,-1656.3,6788.3,562,9171.4,7546.8
8352.4,4709.5,-9439.8,-1657.7,6783.8,558,9167.3,7542.8
8339.7,4706.1,-9446.4,-1661.3,6783.8,558.4,9167.2,7543.4
8336.2,4702.5,-9448.4,-1663.5,6785.2,559.9,9169.2,7545.4
8336,4703.7,-9448.4,-1662.8,6786.9,560.7,9171.9,7545.9
8340.3,4708.8,-9445.5,-1657.2,6785.9,559.3,9171.5,7544.8
8348.8,4708.7,-9440.3,-1657.8,6784.5,559.6,9170.1,7545.1
8350.2,4705.5,-9439.6,-1658.5,6786.4,562.8,9173.1,7548.1
8348,4703.3,-9440.5,-1659.8,6789.1,564.4,9176.2,7549.4
8348.3,4699.2,-9441.9,-1663.2,6785.6,560.2,9172.6,7544.6
8346.2,4699.1,-9443.9,-1664.7,6780.4,556.2,9167.3,7541.2
8338.8,4696.6,-9447.2,-1666,6779.8,556.2,9166.7,7541.7
8340.9,4693.1,-9445.2,-1666.6,6781.3,557.8,9168,7542.7
8345.6,4696,-9438.1,-1665.2,6786,563.9,9172.8,7548.1
8349.7,4704,-9437.3,-1661.2,6791.5,567.8,9178,7553
8351.5,4706.3,-9439.8,-1658.8,6795.8,570.4,9181.7,7556.7
8353.8,4707.6,-9441.3,-1659,6795.4,569.7,9181.8,7556.9
8353.1,4700.5,-9443.3,-1662.8,6792.3,564.8,9178.3,7551.6
8349.6,4694.5,-9444,-1666.4,6789.1,561,9175.4,7546.7
8345.1,4693.4,-9446.1,-1667.2,6784.7,558,9171.9,7543.5
8342.5,4692.7,-9449.3,-1668.6,6783.8,558.7,9171.1,7543.3
8338.7,4697.6,-9450.2,-1667.9,6790.7,566.2,9177.8,7551
8343.2,4701,-9439,-1662.8,6794,569.1,9180.5,7554
8349.7,4703.5,-9436,-1660,6796.9,572.3,9183.3,7558.2
8358.1,4704.9,-9444.1,-1660.7,6800.6,575.4,9186.5,7561.7
8349.5,4704.5,-9444.1,-1662.5,6800.2,575,9186,7561.7
8346.6,4705.2,-9444.5,-1662,6796.3,573.4,9183.2,7560.2
8345.3,4702.1,-9446.6,-1664.8,6790.7,568.9,9177.8,7555.6
8341.9,4697.7,-9449.1,-1670.3,6788.2,566.8,9174.6,7553.5
8342.1,4697,-9449,-1673.5,6791.8,570.6,9178.2,7557.4
8346.7,4699,-9445.3,-1669.4,6794.2,572.1,9180.6,7558.9
8349.7,4703,-9443.1,-1666.2,6795.9,572.9,9182.6,7560.1
8351.4,4706,-9441.4,-1662.7,6799.3,575.3,9186,7562.8
8353.9,4702.9,-9440.3,-1662.6,6797.1,573,9183.5,7559.6
8348.7,4698.8,-9442.3,-1666,6794.8,570.5,9180.3,7556
8346.1,4697.3,-9443.9,-1668.5,6793.6,568.9,9179.5,7552.9
8340.3,4697.4,-9446.7,-1668.5,6789.6,564.9,9175.3,7548.6
8337.8,4695.9,-9447.9,-1667.5,6787.3,560.4,9172,7545.1
8339.9,4693.7,-9445.5,-1672.1,6787.7,561.2,9172.3,7546.1
8343.3,4696,-9443,-1672.7,6790.6,564.6,9175.5,7549.5
8347.2,4698.3,-9441.2,-1667.8,6794.3,568.3,9179.6,7553.2
8352.8,4698.2,-9439.7,-1664.1,6792.3,566.9,9178.2,7552
8349.2,4696,-9442,-1663.6,6789.2,566.6,9176.1,7552
8343,4693.6,-9446.3,-1664.6,6788.3,566.2,9175.1,7551.3
8342.3,4691.1,-9444.6,-1667.4,6786.3,564.7,9172.4,7548.7
8342.2,4692.1,-9441.2,-1668.6,6785.4,566.9,9171.4,7548.8
8343,4697.4,-9443.8,-1665.4,6788.7,569.1,9175.5,7551.3
8346.7,4698.7,-9442.7,-1663.8,6792.4,570.7,9179.1,7553.3
8352.4,4702,-9440.2,-1662.5,6793.7,570.7,9180.3,7553.8
8350.6,4703.8,-9442.6,-1660.8,6793.9,570,9180.9,7556.1
8348.3,4701.7,-9443.6,-1661.4,6796,570.4,9182.8,7556.4
8346.8,4698.4,-9444.3,-1663.8,6794.5,569.1,9181.5,7553.4
8342.4,4697.5,-9447.9,-1666.1,6789.7,566.8,9177.1,7550.6
8338,4698.3,-9450.5,-1669.7,6791,570.1,9179,7553.7
8339.6,4697.4,-9448.2,-1668.6,6793.6,570.8,9180.9,7553.5
8347.7,4697.2,-9445.3,-1666.9,6794.7,570.7,9181.4,7552.7
8348,4701.1,-9442.1,-1663.9,6797,572.8,9183.7,7555.3
8346.5,4703.9,-9440,-1661.3,6800.7,574.5,9187,7558.6
8348.4,4704.5,-9440,-1661.6,6803.9,575,9189.6,7560.2
8345.9,4704.2,-9440.9,-1663.2,6803.5,574.6,9189.5,7559.6
8344.8,4700.7,-9443.6,-1667.4,6798.3,571.7,9184.6,7556.7
8339.7,4697.7,-9448.6,-1672.2,6798,571.4,9184.2,7556.5
8341.1,4698.1,-9449.7,-1672.4,6796.7,569.7,9182.1,7554.8
8343,4699,-9448,-1671,6794.7,569,9180.6,7554.4
8341.3,4701.4,-9440.6,-1665.5,6795.7,570.3,9181.3,7556.7
8343.7,4700,-9434.4,-1662.8,6795.6,569.1,9180.9,7556
8352.1,4703.7,-9441.8,-1661,6797.3,570.4,9182.6,7558.2
8350.7,4703.9,-9442.9,-1660.3,6797.3,571.7,9182.4,7560.5
8343,4701.7,-9446.8,-1661.2,6797.9,572.5,9183.2,7561.6
8335.9,4699.3,-9451.5,-1660.2,6795.1,569.4,9180.4,7558.5
8337.6,4693,-9450.7,-1666.4,6788,564.7,9173.3,7552.7
8340.8,4692.8,-9450.5,-1668.5,6786,564.6,9171.4,7552.4
8343.4,4693.8,-9449.6,-1667.4,6788.7,567.2,9174,7554.8
8351.9,4694.7,-9446.9,-1666.6,6787.6,564.9,9172.7,7552.4
8346.4,4696.9,-9447.1,-1665.2,6792.2,569,9177.4,7557.8
8346.1,4698.2,-9446.4,-1663.5,6795.9,572.4,9180.8,7562.1
8345,4697.4,-9445.3,-1662.3,6795.2,572.2,9179.6,7560.6
8345.7,4694.9,-9442.4,-1663.4,6795.8,574.2,9180,7560.7
8346.5,4696.1,-9445,-1664.2,6796.1,573.4,9180.4,7560
8352.7,4695.6,-9445.5,-1665.6,6791.5,568.8,9176.3,7555.1
8348.2,4696.2,-9447,-1666,6790.6,567.2,9176,7554.5
8342.1,4698.4,-9450.3,-1664,6793.2,568.1,9178,7557.3
8344.5,4697.6,-9449.7,-1664.8,6792.8,568.9,9177.4,7557.1
8344.9,4700.8,-9446.8,-1663.5,6795.6,571.7,9180,7559.6
8345.1,4699.6,-9446.1,-1665.2,6796.4,572,9180.6,7560
8338.3,4702.7,-9451.4,-1668.8,6798.6,575.4,9183.2,7564
8339.9,4702.2,-9449.9,-1669.3,6796,572.2,9180.8,7560.9
8339.5,4699.2,-9451.1,-1668.2,6791.5,566.4,9175.8,7554.8
8340.8,4696.3,-9450.3,-1669,6790.9,564.7,9174.7,7553.1
8343.5,4694.9,-9448.2,-1668.4,6790.1,564.6,9174.6,7552.7
8347.9,4696,-9444.4,-1666.4,6792.8,567.3,9177.9,7555.6
8346.7,4695.3,-9444,-1665.6,6796,569.5,9180.7,7557.6
8345.7,4694.4,-9444.8,-1666.8,6799.2,572.9,9183.7,7560.5
8343.1,4692.4,-9446.6,-1670.5,6801.9,576.5,9186.5,7564.2
8340.6,4687,-9448.5,-1671.8,6801.8,575.2,9185.7,7562
8335.2,4689.6,-9452.5,-1670.9,6796.1,570.1,9180.1,7556.9
8335,4694.6,-9453.5,-1668.4,6789.7,565.3,9174.4,7551.7
8338.6,4696.8,-9451.2,-1665.3,6787,561.8,9172.1,7548.2
8336.2,4699.6,-9448,-1664.5,6787.5,561.6,9173.1,7548.6
8332.4,4703.2,-9441.6,-1663.4,6789.9,563.2,9175.4,7550.8
8337,4709,-9446.7,-1660.6,6793.7,566.3,9178.9,7554.4
8337.7,4713.4,-9454,-1656.1,6793.7,564.8,9177.8,7553.1
8335.6,4708.6,-9450.7,-1659,6791.9,563,9175.9,7550.6
8333.8,4704,-9450.3,-1662,6789.9,562.1,9174.5,7549.2
8331.2,4701.5,-9451.7,-1664.1,6788.5,560.7,9173.2,7548
8326.1,4701.3,-9453.8,-1664.7,6785.2,556.9,9169.9,7544.2
8326.8,4707.1,-9452.4,-1662.5,6784.3,556.4,9169.2,7543.1
8329.5,4711,-9449.6,-1660.1,6785.5,557.7,9170.6,7543.6
8333.1,4714.1,-9444.1,-1655.8,6787.5,560.7,9171.9,7546.5
8332.4,4718.7,-9438.5,-1654.6,6794.7,569.1,9179.1,7553.5
8333.8,4719.2,-9441.5,-1655.4,6800,571.5,9184.2,7556.4
8335.7,4718.5,-9442.6,-1655.9,6796.8,567.9,9180.7,7553
8330.6,4719.1,-9446.1,-1655.3,6794.2,565.6,9178.2,7552
8334.9,4710.5,-9450.2,-1658.7,6788.8,558.7,9172.5,7545.1
8329.5,4709.7,-9451.2,-1658.2,6786.7,558,9170.5,7544.7
8322.4,4712.8,-9451.5,-1656.6,6790.2,561.2,9174.2,7548.3
8324,4713.7,-9451.8,-1658.4,6792.8,563.7,9176.7,7550.8
8325.1,4722.7,-9450.6,-1657.4,6799,571.7,9183.4,7559.1
8332.6,4725.1,-9445.2,-1654,6800.7,574.6,9184.9,7561.4
8331.5,4722,-9445.4,-1653.9,6798.6,571.9,9182,7558.4
8332.6,4719.3,-9446.5,-1653.6,6797.3,569.6,9180,7556.5
8331.6,4716.4,-9448.1,-1654.5,6792.5,565.6,9175.5,7552.5
8329.7,4715.2,-9448.3,-1655.4,6789.3,563.6,9172.8,7550.3
8330.5,4715.6,-9446.5,-1654.2,6789.9,564.4,9173.1,7550.8
8328.8,4715.1,-9447.6,-1654.8,6792.3,567.3,9175.2,7553.1
8330.2,4718,-9448.4,-1657.5,6797.1,573.1,9181.2,7559.1
8335.2,4722.5,-9445.4,-1654.8,6799.2,575.5,9183.2,7562
8334.9,4725.7,-9444.3,-1652.2,6795.2,573.5,9179.9,7561.1
8333.8,4722.8,-9445,-1653.2,6792.8,571.4,9177.4,7558.6
8332.8,4717.1,-9446.2,-1654.3,6788.1,565.8,9171.7,7552.2
8326.1,4712.2,-9449.7,-1657.3,6784.8,562,9167.8,7548.5
8323.8,4710.7,-9450.9,-1658.6,6784.9,562,9167.7,7548.3
8323.9,4712.9,-9450.2,-1656,6785.6,562.7,9168.8,7549
8322.2,4713.8,-9451.9,-1650.8,6787.3,563.1,9170.2,7550.2
8324.1,4714.7,-9449.5,-1649,6790.4,565.9,9173.2,7552.4
8328.1,4715.3,-9447.7,-1650.6,6792.6,567,9175.1,7553.1
8330.4,4714.5,-9447.8,-1652.5,6791.6,564.9,9173,7551.4
8331.7,4712.2,-9447.4,-1654.6,6787.7,559.9,9168.9,7546.2
8331.2,4709.2,-9449.2,-1660,6783.6,555.9,9165,7542.3
8322.2,4708.6,-9454.4,-1660.4,6784.5,556.9,9165.5,7542.4
8325.3,4707.4,-9451.1,-1658.7,6784.8,557.6,9165.4,7543.1
8326.2,4713.4,-9445.9,-1653.7,6789.7,564.8,9171.1,7550
8334.2,4718.6,-9444,-1650.1,6794.2,567,9175.3,7553.5
8337.1,4722.5,-9442,-1648.3,6797.1,568.1,9177.9,7555.9
8332.7,4723.3,-9440.5,-1649,6798.8,568.3,9179.6,7557.3
8328.7,4720.3,-9439.4,-1652.3,6795.5,562.7,9175.4,7551.5
8333.5,4713.9,-9448.2,-1656.3,6790.9,559.4,9171.1,7547.3
8336,4709.6,-9453.6,-1659.1,6787.5,556.6,9167.5,7543.7
8324,4708.9,-9453.5,-1659.8,6786.8,558.1,9168,7544.8
8322,4714,-9453.7,-1659.3,6793.2,566.8,9175.9,7554.2
8328.3,4718.6,-9449.7,-1654.6,6795.6,571,9178.6,7558.3
8332.4,4720.8,-9446.3,-1650.9,6798.7,573.7,9181.7,7561.6
8335.3,4722.1,-9444.3,-1649.7,6801,575.2,9183.7,7563.4
8337.1,4721.6,-9443.5,-1650.2,6798.8,574,9181.5,7562
8333.6,4719.7,-9446.1,-1653.2,6796.2,572.4,9179.4,7560.6
8331,4716.5,-9448.5,-1656.9,6794,569.9,9176.9,7557.9
8328.5,4713.7,-9451,-1657.8,6792.2,568.4,9174.6,7556.1
8328.9,4714.7,-9451.8,-1658,6794.4,571.6,9177.3,7558.4
8331.7,4719,-9450.5,-1653.9,6796.6,573.7,9179,7559.9
8332.5,4723.4,-9448.2,-1650.6,6800.1,575.6,9182.2,7561.8
8338,4725.8,-9444.5,-1647.1,6803.4,576.3,9184.1,7563.2
8341.8,4722.6,-9442,-1646.8,6802.3,573.3,9182.6,7560.7
8339.6,4718.5,-9444.3,-1650.7,6800.6,571.4,9181.7,7558.5
8332.5,4718.1,-9448.6,-1652.4,6798.8,570.5,9179.2,7558.1
8327.4,4716,-9452,-1653.9,6794.2,566.7,9174.6,7554.4
8325.7,4711.9,-9454.8,-1654.1,6790.2,562.4,9170.7,7550.2
8323.9,4711.7,-9454.1,-1656.2,6791.3,563.8,9172,7551.9
8326.9,4713.4,-9452.4,-1655.9,6793.2,567,9173.9,7555.7
8333.4,4716.3,-9450.2,-1654.2,6795.5,569.1,9175.9,7558
8338.3,4716.6,-9448.3,-1654,6796.3,568.8,9176.1,7557.2
8336.5,4715,-9448.7,-1656.9,6793.9,567.2,9174.4,7555.9
8332.7,4711.7,-9449.4,-1660.2,6791.6,565.7,9171.8,7553.8
8330.1,4710.9,-9448.3,-1661.4,6788.8,564.5,9168.2,7550.3
8332.4,4708.9,-9444.3,-1662.9,6788.9,567,9168.7,7551
8332.2,4713.8,-9446.7,-1660.6,6790.7,568.1,9170.8,7552.8
8335.3,4715.9,-9445.4,-1658.1,6794.2,569.9,9173.9,7555.2
8344.4,4718,-9443.1,-1658.7,6797.5,571.5,9177,7557.6
8345.1,4721.2,-9443.4,-1658.7,6799.2,570.6,9177.7,7557.8
8334.8,4722.3,-9445.3,-1655,6799.5,571.2,9178,7559.5
8334.3,4719.4,-9446.2,-1655.5,6794.8,568.3,9173.4,7556
8332.5,4713.7,-9449.3,-1658.4,6791.2,565.5,9170.7,7553.4
8326.3,4712.9,-9453.6,-1661.2,6793.6,568.2,9173.5,7556
8322.3,4713.8,-9446.9,-1658.9,6793.7,568.6,9173.6,7555.3
8325.5,4718.9,-9443.9,-1654.8,6792.2,567.1,9171.6,7553.8
8332.6,4720.7,-9452.5,-1653.2,6795,569.7,9174.6,7558.1
8332,4722.8,-9451.1,-1650.7,6798.9,573.5,9178.9,7562.3
8333.8,4723.8,-9448.3,-1650.7,6799.4,574,9179.3,7563.2
8334.5,4720.4,-9447.7,-1654.2,6797.9,572.5,9177.4,7561.5
8330.9,4715.8,-9450.4,-1658.2,6794.4,569,9173.5,7557.3
8327.1,4715.3,-9454.2,-1660.1,6792.7,568.1,9171.8,7555.8
8325.1,4714.7,-9456,-1659.4,6791.1,565.8,9169.8,7552.7
8326.1,4713.8,-9455.6,-1658.9,6791.2,565.4,9169.2,7552.1
8329.2,4715,-9453.7,-1656.4,6793,567.3,9171.1,7555
8333.4,4714.5,-9449.6,-1653.8,6792.9,567,9170.7,7555.2
8336.9,4717,-9444.4,-1653.4,6793.4,567.7,9171.7,7556.3
8335.3,4717.4,-9444.6,-1654.4,6793.2,567.8,9171.7,7555.4
8328.5,4715.4,-9448.4,-1654.9,6794,569.1,9173.3,7556.5
8321,4710.6,-9453.7,-1653.8,6790,564.9,9168.4,7552.4
8323.5,4705.6,-9454,-1657.4,6784.5,560.5,9162.5,7547.3
8326.3,4704.9,-9452.9,-1660,6782.1,559.7,9160.6,7545.7
8327.3,4708,-9450.3,-1658.1,6784.9,563.3,9163.8,7549.1
8330.3,4710,-9447.5,-1656.3,6785.7,563,9164.7,7548.9
8332.1,4711.1,-9445.8,-1655.9,6787.8,565.3,9166.9,7551.6
8330.8,4713.4,-9446.3,-1654.7,6792.3,569.8,9171.1,7555.7
8333.9,4711.8,-9443.6,-1654.6,6792.5,570.2,9170.3,7554.6
8334.8,4713.4,-9441.7,-1654.1,6793.5,573.2,9170.9,7555.6
8326.2,4718.4,-9446.5,-1652.7,6795.3,574,9173.4,7556.5
8322.8,4717.9,-9450,-1653.7,6793.6,571.7,9171.4,7554.8
8326.6,4716.2,-9450.9,-1655.5,6794.6,571,9171.8,7554.7
8332.3,4714.5,-9451.2,-1655.8,6795.6,569.9,9172.3,7554.4
8330.2,4715.9,-9452,-1657.1,6797.8,572,9173.9,7557.1
8327.6,4721.5,-9450.2,-1656.5,6801.2,574.9,9176.9,7560.1
8326.3,4719.8,-9449.9,-1653.8,6800.2,575.2,9176,7561.6
8321.8,4718.7,-9452.8,-1654.4,6800.5,578.9,9178.3,7565.8
8322.6,4713.7,-9452.9,-1655.4,6801.5,579.1,9179.5,7565
8321.4,4710.4,-9454.6,-1658,6798.3,576.2,9176.1,7562.1
8323.3,4710.6,-9454.7,-1658.9,6795.4,573.1,9172.3,7558.3
8329.9,4713.6,-9450.1,-1656.2,6794.8,571.9,9170.8,7556.1
8329.6,4716.8,-9448.3,-1654.6,6797.5,573.4,9172.9,7557.3
8330.9,4719.3,-9446.2,-1653.5,6801.3,577,9176.3,7561.2
8327.3,4718.5,-9441.1,-1654.2,6802.7,579.5,9177.8,7563.9
8328.5,4716.8,-9443.4,-1656.8,6804.3,581.2,9179.8,7565.6
8334.4,4719.7,-9452.4,-1653.8,6803.9,580.2,9178.9,7564.4
8330.3,4716.4,-9453.4,-1656,6801.2,577.3,9176,7561
8330.3,4714,-9453.9,-1656.2,6798,573.7,9172.6,7557.4
8331.6,4711.7,-9451.7,-1655.4,6795.2,570.6,9170,7555.2
8333.3,4712.8,-9448.8,-1655.4,6794.4,571.3,9169,7556.2
8334.9,4715.1,-9448.8,-1655,6798.3,574.8,9172.8,7559.4
8331.7,4720.4,-9449.8,-1651.3,6801.7,578.5,9176.3,7563
8325.2,4720.3,-9451.7,-1647,6801.7,577.7,9176.6,7562.8
8327.7,4712.7,-9451.1,-1652.4,6798.1,574.6,9173.1,7559.3
8323.9,4710.3,-9453.8,-1655.9,6796.1,574.3,9172.1,7558.8
8325.1,4708.5,-9454.5,-1658,6791.7,570.9,9167.9,7554.2
8329.9,4704.7,-9456.6,-1660.3,6788.3,566.2,9163.6,7548.5
8319.6,4706.2,-9459,-1659,6792.7,569.5,9166.7,7552.1
8318.9,4708.1,-9457.4,-1658.1,6795.1,572.2,9169,7554.9
8323,4708.7,-9453.3,-1657.5,6797.9,575.4,9171.6,7556.6
8327.7,4715.3,-9446.5,-1654.3,6802.2,582.2,9176,7562.7
8329.9,4719.9,-9448,-1652.7,6804.6,582.4,9178.1,7564.8
8330,4716.4,-9449.6,-1653.7,6803.2,578.5,9176.1,7561.9
8331.4,4713.7,-9451.2,-1655,6801.1,575.1,9173.4,7558.9
8329.2,4706.8,-9455.6,-1660.3,6796.3,569.1,9168.5,7553.4
8328.2,4699.2,-9455.7,-1664.8,6796,568.3,9167.8,7553.7
8326.5,4695.7,-9454.7,-1665.9,6798.8,571.2,9170.6,7557.2
8323.9,4698.2,-9456.3,-1664.6,6802,574.6,9174,7560.3
8320.3,4709.9,-9456.8,-1660.7,6807.2,580.8,9179.2,7566.2
8323.6,4719.2,-9453.6,-1655.3,6806.7,581,9178.8,7566
8327.2,4722.7,-9452,-1653.1,6803.1,577.7,9175,7562.5
8330,4722.3,-9451.1,-1653,6799.4,574.7,9171,7559.4
8331,4719.7,-9450.3,-1655.2,6794.5,570,9166.4,7554.6
8330.8,4717.9,-9450.4,-1658.1,6792.5,568,9164.1,7552.7
8327.2,4720,-9453,-1656.8,6795.3,571.3,9167,7555.3
8325.7,4720,-9452.6,-1655.8,6797.6,573.3,9169.5,7557.4
8322,4725,-9448.5,-1654.3,6800.7,577.9,9173.6,7562.5
8322.1,4730.3,-9444.7,-1648.9,6803.1,579.2,9176.3,7563.7
8329.6,4731,-9453.4,-1648.6,6803.5,578.9,9176.4,7563.2
8328.8,4730.7,-9454.1,-1649.2,6802.7,577.5,9175,7561.5
8332.3,4725.5,-9452,-1649.8,6795.7,570.3,9168.2,7554.1
8323.1,4722.5,-9454.3,-1651.4,6792.7,569,9166.1,7553.3
8319.4,4721.8,-9455.6,-1653,6792.9,569.9,9165.7,7553.7
8318.7,4722,-9455.7,-1652.3,6795,572.3,9168,7555.4
8313.8,4724.7,-9456.9,-1648.3,6797.6,573.5,9170.4,7557.1
8321.7,4726.1,-9452.1,-1647.8,6797,573.2,9168.9,7557.6
8322.6,4728.2,-9450.4,-1646.7,6799.2,575.9,9171.7,7560.8
8326.2,4728,-9449.7,-1646.9,6798.6,573.9,9170.8,7558.5
8331.9,4723.9,-9451,-1649.1,6794.9,569,9166.1,7552.5
8319.7,4724.1,-9454.5,-1650.1,6794.6,569.4,9165,7552.6
8314.2,4722.5,-9457,-1652.7,6792.3,568.2,9162.2,7551
8314.5,4722,-9456.8,-1653,6793.4,569.7,9163,7551.6
8318,4727.6,-9451,-1648.2,6799.2,576.5,9169.1,7558
8322.1,4731.3,-9449.4,-1644.5,6804.9,581.4,9175.4,7564
8324.5,4729.8,-9447.9,-1643.9,6808.9,584,9179.4,7567.9
8325.5,4730.8,-9448,-1643.5,6810.3,584.1,9180.8,7569.6
8327.6,4724.9,-9449.6,-1647.8,6805,577.4,9175.7,7563.3
8320.9,4721.4,-9453.4,-1650.5,6801.9,574.2,9171.4,7559.7
8316.4,4717.7,-9456.2,-1653.6,6799.5,571.8,9168,7556.7
8316,4713.4,-9457.7,-1658,6799.6,572.4,9168.1,7557.4
8311.2,4718.5,-9459.8,-1658.2,6805.5,579.8,9174.9,7565.6
8313.2,4722.8,-9456.8,-1653,6809,582.7,9178.3,7568.7
8318.7,4726,-9453,-1648.5,6809,582.1,9178.2,7569.3
8321.8,4726.2,-9451.3,-1647.2,6810.4,581.9,9179.4,7569.9
8321.4,4725.7,-9451.3,-1647.9,6808.7,579.8,9177.2,7567.4
8319.9,4724.5,-9453.3,-1651.1,6804.5,574.9,9172,7562.6
8313.9,4721.6,-9458.2,-1658.9,6800.2,571.2,9167.7,7558.3
8310.4,4716.8,-9462.1,-1663.3,6796.8,568.8,9164.4,7554.9
8312.4,4716.6,-9462.3,-1662.9,6797.3,571.1,9166.1,7557.3
8315.6,4719.8,-9459.1,-1657,6797.1,572.2,9166.4,7559.5
8315.3,4721.9,-9457.9,-1653.5,6798.5,573.1,9167.8,7561.2
8318.1,4725,-9456.1,-1651.1,6801.1,574.4,9170,7563.1
8323.9,4725.9,-9454.6,-1648.7,6798.5,571.6,9166.5,7559.9
8325.6,4722.4,-9454.9,-1651.2,6795.5,568.7,9163.5,7556.5
8315.4,4721.6,-9458.5,-1652.5,6795.1,568.2,9163.2,7554.7
8313.3,4721.1,-9459.5,-1652.6,6790.7,564.3,9158.6,7550.5
8309.8,4718.6,-9461.2,-1653.5,6788.1,561.3,9155.8,7547.3
8310.9,4717.6,-9460.7,-1653.1,6790.5,563.2,9157.8,7548.5
8311.5,4718.2,-9459.1,-1652.3,6795,567.5,9161.7,7551.9
8317,4722,-9455,-1649.2,6797.7,570.8,9165.2,7554.9
8327.7,4722.3,-9450.3,-1647.9,6795.5,568.9,9163.3,7553
8316.2,4722.1,-9446.2,-1648.6,6794.2,569.6,9163,7553.7
8308.3,4721.3,-9451.3,-1650.2,6794.3,569.9,9163.6,7553.6
8317.3,4718.1,-9459.2,-1652.7,6792.4,568.9,9161.7,7550.2
8315.6,4717.3,-9455.4,-1654,6793.4,572.4,9161.8,7552.1
8316.6,4721.6,-9455.8,-1651.3,6796.8,575.1,9165.2,7556.2
8319.5,4720.8,-9454.5,-1650.8,6800.3,576.8,9168.7,7559.2
8322.4,4724.1,-9453.5,-1650.1,6803.9,579,9172,7562.9
8326.6,4727,-9453.2,-1650.6,6803.2,577,9170.6,7561.6
8327,4726.5,-9452.8,-1650.6,6801.9,576.9,9169.2,7561.4
8321.9,4724.5,-9455.9,-1651.6,6800.5,576.6,9168.3,7561.3
8317.7,4722.3,-9459.7,-1655.1,6798.4,575.4,9166.4,7559.8
8313.9,4721.8,-9462.3,-1659.1,6799.4,577.9,9167.5,7562.5
8315.9,4724,-9459.7,-1656.9,6798.9,578.5,9167.2,7562.8
8321.6,4722.7,-9456.3,-1655.2,6799.9,579.1,9168.1,7563.8
8322.2,4724.4,-9455.2,-1652.3,6803.4,581.2,9171.6,7566.3
8323.2,4728.9,-9453.2,-1647.2,6805.8,583.6,9174.8,7569
8326.2,4734,-9451.5,-1644.8,6807.9,584.6,9176.5,7571.1
8324.4,4735.3,-9452.8,-1646,6806.1,582.6,9174.7,7569.6
8321.9,4731.5,-9455.2,-1649,6803.2,579.6,9171.3,7566.6
8319.7,4731.5,-9455.5,-1651.9,6801.2,579.1,9168.7,7565.6
8319.5,4727,-9454.8,-1654.4,6798.4,576.7,9166.1,7563.1
8322,4728.1,-9453.5,-1651.4,6798.1,575.3,9166,7561.7
8323.1,4730.9,-9451.2,-1648.7,6799.5,576,9167,7562.7
8324.1,4732.6,-9449.6,-1646,6800.5,576.3,9167.4,7563
8327.5,4734.8,-9446.2,-1644.2,6802.9,578,9169.3,7565.2
8329.6,4732,-9446.4,-1645.9,6803.1,577.9,9169.7,7564.7
8323.6,4730.2,-9451.6,-1647.2,6801.2,576.5,9168.6,7562.8
8309.8,4729.5,-9456.4,-1645.1,6798.9,573.6,9166.4,7559.1
8313.5,4724.9,-9455.8,-1649.5,6793.7,568.7,9160.7,7552.8
8314.8,4722.2,-9455.4,-1652.6,6792.4,568.2,9159.4,7551.9
8316.2,4721.9,-9454.9,-1651.6,6794.5,570.2,9162.1,7554.3
8320,4720.6,-9453,-1651.2,6794.5,569.7,9162.4,7553.6
8319.8,4722,-9452.6,-1651.3,6798,572.9,9166.3,7556.3
8321.6,4724.5,-9451.1,-1650.4,6799.7,574.8,9168.7,7558.6
8321.4,4722.8,-9449.7,-1651.1,6800.3,574.9,9168.7,7558.8
8319.6,4721.7,-9447.7,-1652.1,6802.3,577.8,9169.6,7559.7
8320.7,4723.7,-9449.2,-1653,6803.2,577.1,9170,7559.4
8311.4,4721.9,-9451.3,-1654.9,6803.2,574.6,9169.7,7558.1
8311.3,4721.2,-9447.5,-1654.7,6801.3,570.7,9166.8,7555.7
8320,4720.2,-9455.3,-1654,6801.1,568,9166.5,7554.3
8323,4720.6,-9455.6,-1652.1,6800.5,569.4,9167.6,7555.3
8324,4723.9,-9452.9,-1650.1,6800.9,572.1,9169.4,7558.3
8320.9,4724.9,-9455.1,-1650.6,6802.5,573.3,9170.7,7560
8314.1,4727.4,-9457.9,-1653.7,6805.6,576.4,9174.4,7563.1
8316.6,4725.9,-9454.5,-1653.9,6804,575.2,9173.2,7560.8
8316.8,4722.7,-9455.4,-1657,6799.1,571.1,9169.3,7556.2
8319.8,4723.1,-9455.5,-1658.7,6794.5,567.1,9165.3,7552.5
8316,4726.3,-9456.8,-1655,6794.2,566.4,9165.3,7552.7
8313.5,4726,-9457.9,-1655.5,6796.6,568,9166.7,7555.2
8317.6,4725.5,-9456.1,-1654.9,6796.2,568.2,9164.5,7556.6
8314.3,4724.9,-9459.2,-1656.4,6798,569.1,9164.3,7557.7
8311.3,4724.5,-9462.4,-1659.3,6800.1,570.8,9164.7,7559.5
8313.6,4724,-9461,-1659.7,6796.3,567.2,9159.5,7556
8313.9,4719.3,-9462.2,-1662.6,6792.3,562.3,9153.4,7551.4
8315,4716.2,-9462.8,-1662.5,6789.4,559.8,9148.5,7548.7
8303.9,4714.8,-9465.6,-1660.6,6788,558.5,9145.3,7546.8
8307,4714.7,-9464.8,-1662,6788.2,559.2,9144.9,7547.1
8307.3,4715.9,-9465.1,-1662,6790.6,561.4,9147,7548.9
8302,4718.1,-9468.1,-1659.6,6794.3,565.1,9150.7,7553
8299.6,4718.8,-9470.4,-1657.4,6795.2,564.4,9150.2,7553.1
8300.7,4709.7,-9470.3,-1664.6,6793.2,561.7,9146.5,7549.8
8301.9,4699.5,-9470.1,-1669.9,6789.8,560.3,9142.3,7548.2
8298.8,4694.8,-9471.7,-1670.4,6788.4,558.8,9140.4,7545.5
8296,4695.6,-9475.8,-1670.6,6784.6,554.7,9136.4,7540.7
8297.2,4701.7,-9477.1,-1669.7,6783.2,553.3,9134.5,7538.9
8299.8,4704.7,-9475,-1668.6,6783.7,553.6,9133.9,7538.3
8302.4,4711.1,-9469.6,-1664.8,6786.4,556.4,9135.1,7540.3
8308.9,4720.4,-9462,-1659.5,6789.6,561.1,9138.4,7544
8310.6,4727.4,-9463.3,-1655.1,6791.1,560.6,9140.2,7545.3
8311.1,4725.2,-9467,-1656,6790.6,557.6,9138.8,7543.2
8309.5,4724.6,-9470.6,-1657.7,6788.7,555.1,9137.1,7541.1
8308.5,4720.3,-9469.9,-1662.4,6781.5,549,9129.5,7534.9
8305.3,4720.4,-9467.1,-1664.1,6776.8,547.1,9125.7,7532.6
8306.4,4721.3,-9464,-1663.4,6778.2,547.5,9126.7,7533.2
8305.3,4725.5,-9464,-1660.9,6781.2,550.5,9129.2,7537
8301.8,4729.4,-9464.4,-1658.6,6789.7,560.4,9138,7547.3
8301,4733.3,-9457.9,-1656,6792.8,563.1,9140.5,7550.2
8300.2,4736.4,-9456.3,-1654.6,6790.4,560.3,9137.2,7547.3
8307.9,4737.3,-9466.3,-1654.3,6787.2,557.4,9132.8,7544.7
8309.7,4735,-9467.9,-1655.8,6783.5,553,9128.1,7539.9
8305.9,4731.5,-9467.8,-1657.7,6782.6,552.8,9127.4,7539.4
8295.5,4731.7,-9470,-1656.6,6785.8,556.1,9131.1,7543.4
8298.5,4731.1,-9469.3,-1657.8,6787,557.3,9132.9,7544.8
8297.1,4735.2,-9470.2,-1657.5,6791.9,562.6,9138.2,7550
8302.7,4740.2,-9467.9,-1654.9,6793.4,565.1,9140.2,7551.9
8302.8,4741.6,-9466.3,-1653.6,6792.4,564.5,9140,7551.5
8301.4,4737.7,-9468,-1655.1,6792.7,563,9140,7549
8302.3,4735,-9469.8,-1656.2,6787.2,557.9,9134.5,7544.1
8302.8,4730.2,-9468.9,-1660.7,6781,554,9129.6,7539.7
8294.7,4729.5,-9471.5,-1660.9,6781.6,554.5,9130.7,7540.2
8291.8,4731.9,-9473.6,-1656.7,6784.1,556.2,9133.9,7541.8
8291.2,4734,-9474.8,-1654.3,6785.3,556.4,9135.4,7541.8
8299,4735.1,-9469.7,-1656.1,6786.1,557.4,9136.2,7543.6
8301.8,4736.5,-9467.2,-1656.4,6788.1,559.1,9138.6,7544.9
8301.8,4732.9,-9467,-1658.2,6790,560,9141.7,7545.1
8304.1,4729.5,-9467.2,-1660.3,6785.7,556,9138.1,7540.7
8302.3,4727.8,-9468.5,-1663.4,6783,554.1,9134.6,7538.9
8296.9,4726.7,-9471.5,-1663.9,6781.1,553.1,9131.5,7537.8
8298.2,4725.9,-9469.4,-1662.7,6781.4,554.1,9129.7,7537.8
8304.9,4728.8,-9460.8,-1660.4,6787.8,560.4,9134.8,7542.8
8308.6,4736,-9459.1,-1656,6794.8,564.6,9140.8,7548.3
8312.3,4741.2,-9456.6,-1651.8,6797,565.7,9142.2,7550.6
8314.5,4741.1,-9456.9,-1650.6,6796.9,565.3,9142,7551.1
8311.1,4738.2,-9461.8,-1652.4,6792.8,560.8,9138.1,7547
8308.6,4730.7,-9463.3,-1657.6,6788.6,557.2,9133,7543.6
8300.9,4727.1,-9466.3,-1659.5,6785.9,556,9129.3,7542.4
8297.6,4723.3,-9469.4,-1661.9,6783.9,556.3,9127.4,7541.8
8292.1,4725.5,-9469.9,-1662.2,6789.2,563.7,9133.3,7550.1
8297.2,4729.6,-9465.8,-1658.3,6792.6,567.2,9136.3,7553.4
8301.1,4735,-9464.4,-1654.8,6794.3,568.1,9137,7554.3
8298.4,4740.6,-9464.5,-1651.9,6795,568.7,9137.2,7555.3
8298.8,4743.6,-9464.4,-1650.5,6791.7,564.7,9132.9,7551.4
8299.4,4745,-9462.7,-1651.2,6787.7,559.4,9127.6,7545.4
8292.3,4743.8,-9460,-1654.2,6783.6,555.6,9122.8,7540.7
8297.5,4738.5,-9466.2,-1659,6779.8,552,9117.8,7536.7
8294,4744.4,-9475.8,-1657.8,6783.9,556.3,9121.6,7541.8
8297.1,4750.1,-9473.2,-1653.2,6785.2,557.9,9122.9,7543.7
8298.6,4749.4,-9471.1,-1652.4,6787.6,560.5,9125.2,7547.7
8301.1,4746.3,-9467.1,-1651.1,6792.4,564.4,9129.2,7552.5
8300.4,4740.7,-9466.5,-1653.8,6792,562.7,9128.6,7551.3
8300.6,4739,-9466.2,-1656.3,6788.7,559.9,9125.2,7549.3
8297.5,4741.6,-9466.9,-1655.1,6782.7,555.9,9118.6,7545.5
8288.3,4738.4,-9472.3,-1655.3,6780.5,554.1,9116.9,7542.8
8282.7,4734,-9476.6,-1654.5,6779.9,553.4,9116.5,7541.4
8285.7,4732.5,-9475.2,-1658.4,6778.5,552.9,9115.2,7540.6
8289.9,4736.8,-9471.8,-1658.7,6781.6,554.1,9116.9,7542.1
8295.8,4741.1,-9468.8,-1655.1,6784,555.5,9119.2,7542.8
8298.7,4740.9,-9466.8,-1652.9,6786.8,556.2,9120.8,7542.6
8294.4,4738.5,-9468.6,-1653.8,6785.6,555,9118,7542
8292.2,4734,-9470.9,-1657.5,6783.6,552.8,9115.5,7539.9
8290.7,4733.7,-9471.2,-1658.8,6780.1,552.1,9112.4,7537.5
8283.4,4736.3,-9472.7,-1657.8,6781.3,557.1,9114.3,7540.5
8286.3,4739.5,-9473.4,-1656.6,6782.4,557.8,9115.9,7542.2
8290.4,4741,-9471,-1653.3,6784.8,558.9,9117.4,7543.8
8293.8,4741.4,-9469.7,-1652.1,6787.5,560.8,9119.7,7547
8298.9,4745.5,-9469,-1651.3,6787.6,559.2,9119.5,7546.6
8296.6,4745.5,-9469.4,-1651.6,6787.3,558.4,9118.7,7545.9
8294.1,4743.1,-9471.5,-1653.1,6785.8,557.3,9116.7,7543.6
8295.2,4738.2,-9474.2,-1657.3,6782.6,554.7,9113.6,7540.7
8283.5,4739.3,-9477.4,-1659.5,6785,557.9,9116.6,7544.2
8284.9,4740.1,-9475,-1657,6785,558.1,9116.7,7543.7
8291,4741,-9472.2,-1655.3,6783.6,557.6,9116,7543.1
8293.2,4743.9,-9470.2,-1652.8,6785.2,560,9118.8,7545.6
8296.6,4748.1,-9467.8,-1649.6,6787.5,562.1,9120.8,7548.1
8297.6,4749.3,-9467.6,-1651.6,6789.8,564.6,9123.6,7550.9
8298.7,4746.8,-9467,-1653.3,6790.1,563.9,9123.9,7550.4
8295.3,4740.4,-9469.6,-1655.8,6787.3,559.7,9120.7,7545.6
8293.4,4740.6,-9471,-1657.4,6783.8,558.3,9117.2,7543.9
8289,4742.4,-9468.4,-1653.1,6780.2,556.1,9113.5,7541.7
8286.6,4741.8,-9463.4,-1652.5,6779.1,554.9,9112.8,7539.7
8296.9,4742.1,-9469.2,-1652.5,6781.7,556.9,9115.1,7541.4
8304.1,4741.5,-9469,-1651.6,6782.8,558.4,9117,7543.1
8302.2,4742.7,-9466,-1651.3,6784.3,559.6,9119.6,7544.1
8300.6,4744.3,-9465.5,-1650.8,6785.1,559.5,9120.4,7544
8294.3,4743.7,-9468.2,-1652,6783.9,557.8,9119.2,7543
8285.6,4740.9,-9474.1,-1652.2,6781.5,555,9116.6,7540.7
8286.2,4734.5,-9475.6,-1656.6,6776.2,550.8,9110.8,7535.2
8283.8,4732.1,-9477.3,-1658.9,6774.6,550.3,9109.1,7533.2
8289.5,4732.8,-9473.6,-1659.2,6776,553.1,9111.1,7535.6
8294.3,4733.1,-9471,-1657.7,6775.8,552.9,9111.1,7535.6
8290.1,4739.5,-9472.8,-1655.1,6779.2,556.3,9114.2,7539.2
8292.2,4738.1,-9471.9,-1655.8,6781.9,559.3,9116.1,7542.2
8292,4737.5,-9469.6,-1656.2,6782.4,561.2,9116,7543.3
8290,4737.3,-9467.4,-1656.5,6782.8,564,9116.2,7545.1
8290.5,4737.2,-9470.4,-1656.8,6782.9,564.3,9117,7546.5
8292.4,4734.9,-9472.9,-1659.2,6780.5,562,9114.7,7544.2
8298.5,4732.4,-9472.1,-1660.7,6780.9,561.8,9115,7544.4
8294.8,4735.3,-9474.1,-1658.6,6782.4,562.4,9115.8,7546.5
8290.6,4738.2,-9472.4,-1656.4,6784.6,565.6,9117.9,7549.5
8294.1,4736.5,-9470.7,-1656.7,6786.2,567.3,9119.9,7550.6
8289.7,4739.5,-9472.9,-1655.7,6788.6,569.3,9122.7,7552.3
8288.7,4743.4,-9473.3,-1656.3,6789.9,572.1,9125,7555.7
8292,4740.7,-9472.1,-1656.2,6789.7,571.2,9125.3,7553.5
8292.1,4737.4,-9474,-1656.9,6786.6,568.2,9122.3,7549.1
8292.9,4736.6,-9473.7,-1656.1,6784.7,566.2,9119.9,7546.7
8293.1,4736.1,-9473.2,-1655.2,6786.9,565.9,9122.4,7546.8
8297.6,4738,-9470.1,-1653.8,6787.9,566.9,9124.2,7548
8300,4740.8,-9467.2,-1651.9,6788.4,568,9125.7,7549.5
8297.5,4741.7,-9467.5,-1651.9,6791.5,570,9128,7552
8297.6,4744.6,-9468.2,-1653.2,6793.4,571.5,9129.1,7553.4
8296.9,4744.6,-9469.8,-1653.9,6792.1,569.5,9127.8,7550.7
8295.8,4743.4,-9472.1,-1654.1,6789.4,565.3,9123.8,7546.8
8295.8,4740,-9472.6,-1654,6784.4,559.6,9118.1,7541.8
8300.3,4734.6,-9469.5,-1652.4,6778.4,553.2,9111.3,7535.4
8295.2,4737,-9469.7,-1651.3,6781,555.3,9113.9,7537.2
8293.3,4740.4,-9469.3,-1649.9,6784,557.8,9117,7539
8290.9,4743.4,-9469.1,-1645.9,6787.9,560.4,9120.2,7541.9
8284.4,4743.5,-9468.6,-1642.9,6786.9,557.4,9117.9,7540.3
8281.8,4738.4,-9463.6,-1648.2,6781.9,553,9113,7535.9
8287.9,4735.4,-9471.5,-1652.4,6780.1,551.9,9111.1,7533.2
8291.7,4733,-9475.3,-1655.9,6777.1,549.7,9107.7,7529.8
8291.4,4729.6,-9473.6,-1658.3,6772.9,546,9103.4,7525.6
8288.9,4730.4,-9476,-1657.7,6772.8,547.8,9104.2,7527.4
8292.4,4730,-9474.6,-1657.5,6775.9,551.7,9107.4,7530.2
8287,4735.8,-9471.2,-1653.5,6778.7,556,9110.8,7533.5
8283.8,4741.8,-9467.5,-1649.4,6785,564.1,9118.4,7542.6
8276.1,4740.1,-9473.4,-1650.4,6791.8,570.2,9126.9,7550.1
8272,4732.2,-9478,-1655.2,6792,570.6,9128.4,7551.1
8270.4,4725.4,-9482.9,-1659.9,6789.8,567.8,9127.2,7549.2
8276.7,4717,-9484.5,-1665,6783,559.3,9120.1,7540.5
8286.4,4717.9,-9480.3,-1665.9,6775.3,553.1,9112.2,7533.4
8293.9,4727.7,-9475.7,-1660.7,6773.2,553.3,9110.2,7533.2
8291.1,4731.9,-9475.6,-1660.5,6777.6,558,9114.5,7537.7
8294.5,4734.8,-9473.4,-1661.5,6784.8,565.7,9122.2,7545.7
8296.5,4738.2,-9470.4,-1655.4,6791.1,570.9,9128.1,7550.8
8299.7,4734.3,-9470,-1655.4,6791.1,568.6,9127.2,7548.4
8301.7,4728.6,-9469.8,-1658.5,6788,564.7,9123.8,7544
8305.5,4725.7,-9468,-1659.3,6783.3,561.7,9119.4,7541.1
8299.9,4721.4,-9470.1,-1662,6783.4,561.4,9119,7540
8299.3,4720,-9470.9,-1663.8,6784.4,562.1,9120.3,7540.7
8298.6,4721.7,-9471.3,-1664.6,6788.2,565.3,9124.8,7544.2
8301.8,4721.1,-9470.1,-1665,6793.3,570.1,9131.1,7549.8
8308.6,4723.6,-9466.7,-1660.2,6796,570.9,9135.5,7551.1
8311.2,4723.1,-9465.8,-1659,6796.1,569.5,9137.7,7549.9
8312.9,4718.9,-9466.2,-1659.8,6794.1,567,9136.5,7547.4
8313.7,4711.8,-9466.9,-1660.6,6789.8,563.1,9131.9,7542.7
8310.5,4705.8,-9469.4,-1664.3,6786.8,560.4,9128.4,7539.5
8307.8,4704.2,-9471,-1666.3,6784.8,560.1,9127.1,7539
8307,4707.1,-9471.5,-1663.8,6785.3,561.5,9128.2,7540.3
8311.5,4705.8,-9469.2,-1661.5,6785.9,559.7,9128.7,7539.7
8319.5,4705.6,-9464,-1662.4,6785.1,559,9128.2,7540.5
8316.7,4705.8,-9463.7,-1662.9,6788.3,561.8,9131.8,7543.6
8310.7,4707.3,-9463.1,-1662.9,6787.1,560.3,9130.6,7541.7
8313.1,4702.2,-9458.6,-1666,6782.8,555.2,9125.7,7535.7
8317.7,4697.4,-9468.4,-1670.3,6780.1,552.4,9122.8,7531.2
8319,4690.4,-9470,-1673.8,6778.3,551.9,9120.6,7529.5
8320.2,4689.8,-9464.1,-1673.3,6777.4,552.7,9119.5,7528.3
8325.9,4696.4,-9456.7,-1669.9,6781.8,558.8,9124.1,7533.5
8331.4,4699.6,-9455.8,-1666.3,6787.8,563.2,9130.1,7539.6
8331.8,4703.6,-9456,-1662,6792.3,565.7,9134.1,7543.6
8332.6,4703.7,-9456.7,-1660.6,6792.5,564.6,9134.7,7543.9
8335.1,4699.1,-9457.9,-1664.5,6788.6,558.2,9130.3,7538.4
8335.2,4694.9,-9457.6,-1668.3,6782.4,551.8,9124.1,7531.6
8333.1,4690.6,-9459.4,-1671.1,6780.4,550.5,9123,7529.2
8323.3,4691.7,-9465.2,-1671.5,6779.8,551.6,9122.6,7529.9
8321.5,4695.3,-9465.4,-1671.4,6785.3,557.7,9128.4,7536.8
8326.8,4698.5,-9459.9,-1667,6788.4,560.2,9131.8,7539.5
8333.5,4701.5,-9456,-1663,6791.3,560.9,9134.4,7541.1
8333.5,4705,-9454.7,-1660.1,6793.6,561.3,9135.6,7541.8
8334.3,4703.9,-9454.4,-1659.8,6792.7,559.1,9134,7539.3
8329.7,4698.6,-9457.2,-1663.4,6791.4,557.4,9132.6,7536.9
8328.2,4694.4,-9458.7,-1666,6787.8,553.6,9128.6,7533.4
8327.1,4689.6,-9461.8,-1670.5,6783.3,549.9,9123.5,7529.7
8323.7,4690.1,-9463.3,-1672.7,6786.2,553.7,9126.6,7533.1
8328,4694.5,-9459.5,-1669.2,6788.3,556.1,9128.4,7536.6
8330.3,4697.4,-9456.9,-1667.3,6789.5,557.7,9130,7538.6
8330.3,4700.1,-9455.6,-1664.7,6792.3,560.5,9132.9,7541.7
8332.7,4696.3,-9455.6,-1664.2,6790.7,559.1,9131.8,7540.1
8330.1,4693.2,-9457.5,-1666.3,6787.5,557.3,9129.5,7538.4
8328,4689.7,-9458.8,-1669.7,6785.4,556.4,9127.8,7537.2
8323.3,4685.7,-9462,-1673.4,6781.7,553.8,9124,7535
8320.9,4683.6,-9464.6,-1673.9,6778.7,549.6,9120.4,7531.3
8322.7,4685.2,-9462.5,-1673.8,6777.9,549.3,9120,7531.1
8328.1,4685.7,-9460.9,-1673.2,6779.9,552.3,9122.5,7534.2
8330.9,4689.6,-9455.1,-1670.3,6782.8,554.9,9126,7537
8328.6,4692.1,-9455.3,-1667.5,6784.3,555.3,9127.7,7537.3
8325.5,4691.6,-9458.1,-1666.7,6783.4,554.5,9126,7535.8
8324.1,4688.7,-9461.2,-1667.9,6780.5,553.1,9123.6,7533.9
8322,4686.1,-9461,-1669,6778,552.4,9121.1,7532.2
8321.3,4683.5,-9458.3,-1669.9,6778.7,555.5,9122.5,7533.7
8323.7,4686.8,-9459.4,-1668.4,6781.7,557.2,9125.9,7535.9
8326,4692.2,-9458.2,-1665.9,6784.3,558.6,9128.1,7538.6
8331.5,4695.2,-9455,-1667.5,6788,560.2,9131.4,7541.1
8333.8,4696.6,-9454.4,-1664.9,6788.6,559.1,9131.3,7541.1
8332.6,4695,-9454.1,-1663.3,6788.8,559,9131.5,7541
8328.4,4690.8,-9455.3,-1665,6788.3,558.2,9131.3,7539.8
8323.6,4688.3,-9458.8,-1667.8,6785.2,555.9,9128.7,7537.1
8319.2,4690.5,-9463.6,-1670.6,6786,558.5,9129.4,7538.8
8322,4690,-9461.5,-1670.4,6785.7,559.1,9128,7538
8321.2,4689.9,-9453.8,-1668.6,6786.8,559.2,9128.9,7538.8
8322,4690.9,-9449.3,-1667.1,6790.3,561.3,9132.6,7540.8
8336.1,4693.5,-9453.5,-1666,6791.9,562.1,9134.5,7541.9
8333.7,4698.8,-9454.3,-1663.6,6794.4,564.4,9137.5,7544.4
8331.1,4698.4,-9454.8,-1663.7,6794.3,563.9,9137.3,7543.5
8328,4692,-9457.1,-1668.8,6793,561.8,9135.9,7541.3
8323.7,4688.6,-9461.4,-1672.7,6792,561,9134.6,7539.7
8323.3,4687,-9462.2,-1672.9,6790.6,559.6,9132.9,7537.7
8324,4686.3,-9461.4,-1672.7,6789.5,558.6,9131.7,7536
8326.4,4689.1,-9459.6,-1670.9,6792.1,560.8,9134.4,7537.5
8330.6,4688.6,-9457.4,-1668.6,6793.2,561.5,9135.5,7539.1
8332,4692.9,-9455.9,-1666.2,6795.3,564.3,9138.1,7543.6
8334.7,4694,-9453.8,-1666.7,6794.9,564.5,9137.9,7543.9
8331.6,4692.3,-9456.9,-1668.6,6793.4,563.2,9136.9,7543.3
8327.2,4690.9,-9462.8,-1669.5,6789.1,558.7,9132.2,7539.3
8331.9,4683.8,-9460.3,-1675.7,6783.2,554.2,9126.5,7533.4
8317.7,4684.6,-9462.5,-1674.9,6782,554.8,9125.6,7534.2
8323,4687.2,-9460.4,-1672,6783,556.2,9126.5,7535.7
8330,4685.8,-9457.3,-1671.9,6782.8,555.8,9126.2,7535.1
8329.5,4688.7,-9456.8,-1669.8,6784.9,558.5,9128.7,7537.8
8326.8,4690.6,-9456.7,-1668.7,6787.9,562.3,9132,7542.6
8327.1,4691,-9455.4,-1668,6786.9,562.4,9130.8,7542.7
8327.1,4691.3,-9453,-1667.6,6787,564.5,9131.5,7542.2
8325.7,4693.3,-9456.9,-1669.6,6788,564.5,9132.9,7543.3
8324.5,4692.5,-9459,-1670.8,6785.2,562.5,9130.8,7543
8326.9,4690.5,-9460.4,-1669.3,6783.5,562,9129.7,7543.8
8329.9,4688.2,-9461.7,-1668.9,6782.4,559.9,9128.8,7542
8325.5,4690.9,-9462.3,-1667.9,6785,562.3,9131.6,7544.6
8325.7,4694.1,-9459.4,-1666.1,6788.3,565.6,9134.5,7549.1
8325.9,4696.1,-9457.8,-1665.8,6788.5,566,9134.3,7549.5
8323.4,4699.5,-9459.5,-1666.5,6791.5,568.1,9137,7551.3
8324,4700.2,-9458.5,-1664.2,6792.1,567.1,9137.8,7550.2
8324.7,4695.1,-9459.3,-1665.6,6788.5,563.1,9134.3,7546.3
8326,4691.9,-9458.8,-1667.1,6788.2,561.9,9134.2,7544.7
8326.6,4692.1,-9458.3,-1666.6,6789,563.4,9135.2,7545.2
8329,4694.5,-9455.4,-1665.1,6790.3,565.1,9136.2,7546.2
8323.8,4699.1,-9449.8,-1661.6,6790.2,566,9136.9,7547.7
8326,4700.6,-9451.7,-1661.7,6792.8,568,9139.8,7550
8328,4702.7,-9461.2,-1661.9,6795.6,571.7,9143,7553.7
8329.3,4700.7,-9457,-1660.4,6793,569.1,9139.7,7550.8
8329.2,4698.3,-9456,-1659.4,6789.9,565.5,9136.1,7546.9
8325.5,4698.1,-9458.1,-1660.1,6786.6,562.4,9132.5,7543.7
8328.1,4694.5,-9456.9,-1661.3,6783.1,558.8,9128.9,7540.6
8331.7,4696.8,-9454.3,-1660.9,6783.2,559.1,9128.9,7542.3
8333.5,4697.6,-9452.8,-1660.3,6783.9,560.4,9129.9,7543.5
8331.5,4701.6,-9454.2,-1657,6786.5,562.8,9132.7,7546.4
8320.1,4704.7,-9458,-1652.6,6788.4,564.1,9135.2,7547.9
8320.2,4699.5,-9457.5,-1657.8,6784.3,560.9,9133.6,7543.8
8320.3,4695.3,-9458.8,-1662,6780.4,558,9136.4,7540.8
8320.1,4691.3,-9460.5,-1664.2,6777.8,555.3,9140.1,7536.4
8322.4,4688.3,-9461.7,-1665.4,6774.3,551.4,9136.5,7531.4
8319.5,4690.3,-9462.1,-1664.8,6773.8,551.8,9133.9,7532.1
8320.5,4692,-9459.9,-1664.3,6776.4,554.5,9134.1,7534.9
8323.8,4694.7,-9455.2,-1662.7,6780.1,558,9135.8,7537.4
8329.9,4699.8,-9448,-1660.6,6786.6,566.1,9140.9,7544.5
8329.1,4701.9,-9449,-1660,6791.1,569.2,9144.6,7548.6
8327,4702.7,-9451.6,-1662.5,6789.5,565.7,9141.7,7545.8
8330.2,4700.3,-9452.4,-1665.5,6786.8,561.2,9137.6,7542.5
8325.8,4691,-9457.8,-1667.7,6784.1,557.1,9133.9,7538.4
8320.2,4689.7,-9460.8,-1668.1,6783.1,555.7,9131.6,7536.7
8322.6,4691.7,-9458.8,-1666.6,6784.3,556,9131.3,7536.3
8322.7,4692.2,-9458.6,-1666.2,6786.4,557.9,9132.7,7537.9
8322.5,4697.1,-9457.8,-1665.7,6795.1,566.6,9141.2,7547.6
8326,4699.6,-9453.9,-1661.4,6799.8,570.3,9145.1,7551.8
8326.1,4699,-9454.3,-1661.1,6797,567.5,9141.6,7548.6
8328,4698.1,-9454.5,-1662.4,6793,564.2,9137.1,7545.1
8326.4,4694.6,-9455.9,-1664.9,6788.9,560.4,9132,7541.3
8321.8,4692.7,-9459.6,-1666.8,6788.4,559,9130.2,7539.6
8322.8,4692.3,-9458.7,-1666.1,6786.7,559.2,9128.8,7539.4
8323.4,4692.6,-9457.9,-1667,6786.9,560.3,9128.8,7541
8323.5,4698.2,-9459.4,-1667.8,6790.5,564.7,9132.2,7546.1
8324.5,4702.6,-9458.8,-1662.6,6795.4,569.3,9136.7,7551.7
8327.1,4697.3,-9457.1,-1663.4,6796.5,569.7,9137.6,7552.4
8324.4,4689.2,-9458.4,-1665.3,6798.1,570.3,9138.6,7552.1
8322.5,4677.2,-9461,-1668.8,6795.3,566.7,9134.4,7548.1
8313,4674.4,-9466.2,-1672.8,6792.2,564.8,9131.1,7546.1
8308.7,4683.1,-9469,-1671.9,6786.5,561.7,9125.5,7542.4
8314.4,4692.9,-9467.8,-1667.8,6782.3,558.4,9121.2,7538.6
8305.3,4700.9,-9469.4,-1661.2,6783.6,558.7,9122.8,7539
8308.6,4706.7,-9465.7,-1660.6,6784.4,560.6,9122.9,7541.1
8315.5,4709.1,-9462.4,-1661.1,6786.7,564.4,9124.9,7543.9
8314.3,4707.9,-9463.4,-1662.6,6787.4,565.4,9125.3,7544.6
8311,4701.3,-9466.3,-1665,6785.4,563,9121.7,7541.3
8306.1,4695.7,-9469.8,-1668.1,6785.2,562.2,9120.4,7540.6
8304.7,4694.5,-9470.8,-1669.1,6783.3,560.8,9118.3,7538.4
8296,4700.9,-9468.4,-1666.8,6783.5,562,9118.9,7538.9
8299,4708,-9457.1,-1661.7,6786.8,567.8,9122.4,7543.9
8312.5,4714.1,-9463,-1657,6791.4,572.2,9127.1,7550.4
8315.8,4717,-9465,-1654.6,6797.1,575.1,9131.9,7555.2
8316,4716.6,-9462.2,-1655.9,6799,576.3,9133.8,7557.7
8313.7,4712.6,-9464.4,-1657.8,6794.7,570.1,9127.6,7552.7
8310.3,4709.4,-9465.9,-1659.2,6792.3,567.7,9124.4,7550.1
8305,4702.9,-9468.9,-1662.4,6790.5,566,9121.9,7547.4
8302.2,4701.5,-9470.9,-1664.1,6791.3,567.7,9123.3,7549.3
8301.6,4708.5,-9470.9,-1662.8,6796.3,574,9129,7555.7
8306.3,4713.8,-9466.3,-1658.2,6800.3,577.7,9132.8,7559.5
8312.4,4712.8,-9461.6,-1657.3,6803.9,580.4,9136.1,7562.1
8311.6,4715.3,-9462,-1655,6807.1,581.4,9138.4,7563.5
8311.1,4714,-9463.1,-1653.7,6806.9,580.1,9137.8,7562.3
8312.6,4709.4,-9462.5,-1657,6803.7,577.2,9134.3,7559.1
8313.4,4707.6,-9463.7,-1660.4,6797.4,571.5,9127.6,7553
8306.8,4707.7,-9468,-1662.8,6793.5,568.2,9123.2,7549.4
8304.8,4709.2,-9469.3,-1663.8,6795.6,571.8,9125.2,7552
8308,4713,-9466.8,-1660.9,6797.5,574.1,9126.5,7554.7
8309.1,4711.3,-9464.4,-1659.8,6798.4,575.5,9126.6,7556.5
8312.8,4712.2,-9462.8,-1657.1,6800.9,578.9,9129,7560.5
8315.7,4710,-9461.4,-1656.4,6800.7,577.3,9128.6,7559
8314.3,4708.3,-9460.6,-1661.6,6797.8,573.5,9125,7554.6
8312.6,4704.5,-9461.3,-1667.1,6793.9,570.3,9120.4,7550.3
8302.3,4702.7,-9466.8,-1664.5,6790.6,567.3,9117.2,7547.2
8302.3,4700.2,-9468.8,-1661.8,6788.5,563.2,9114.1,7543.4
8308,4697.9,-9464.6,-1665.1,6786.6,561.2,9112.4,7541
8314.4,4701.5,-9461.4,-1665.6,6787.3,563.9,9113.9,7543.2
8310.8,4705.4,-9459,-1664.2,6792.9,568.6,9118.9,7548
8314.6,4707.6,-9456.7,-1660.4,6794.5,568.8,9119.8,7548
8312.7,4706.8,-9458.6,-1660.5,6793.3,568,9118.1,7547.3
8311.1,4704.2,-9460,-1663.3,6792.4,566.9,9116.3,7546
8309.3,4703.9,-9459.6,-1663.6,6789.2,565.8,9112.1,7544.1
8308.5,4703.6,-9456.8,-1662.5,6789.8,568.9,9113,7546.5
8314.2,4704.9,-9456.3,-1661.2,6793,570.4,9116.2,7549.5
8318.9,4710.2,-9455.4,-1658.6,6794,570.9,9116.8,7551.2
8321.9,4714.9,-9455.7,-1655.5,6795.9,572,9119.2,7553.4
8322.8,4716,-9456.7,-1654.4,6796.4,570.6,9120,7553.5
8323.9,4715,-9454.9,-1655.5,6795.6,569.8,9118.5,7552.8
8321.4,4712.6,-9455.4,-1658,6794.4,568.8,9116.6,7551
8313.1,4710.3,-9459.7,-1661.2,6793.5,568,9115.4,7549.9
8305.8,4709.4,-9455.5,-1663.7,6795.5,570.7,9117,7552.4
8308.8,4707.5,-9454.9,-1662.3,6793.8,569,9115.2,7549.6
8321.1,4710.1,-9460.4,-1659.4,6795.3,570,9116.7,7550.3
8318.7,4716.3,-9457.1,-1655.3,6798.2,574,9120,7555.1
8321.1,4719.7,-9454.3,-1652.2,6800.7,576.2,9122.2,7557.7
8324.2,4721.3,-9454.5,-1651.1,6803,578,9124.8,7560.2
8327.5,4720.4,-9452.9,-1651.9,6803.7,578.5,9125.6,7561.3
8324,4716.5,-9455,-1657.5,6801.8,576.2,9123.2,7558.8
8320.2,4716,-9457.6,-1660.4,6801.6,576.9,9122.4,7558.7
8322.6,4717.6,-9456.1,-1658.9,6796.9,574.3,9117,7556.1
8320.5,4717.8,-9457.8,-1658.9,6796.8,574.5,9116.7,7556.3
8322.5,4719.6,-9455.7,-1657.4,6799.8,575.6,9119.2,7557.9
8325.3,4721,-9452.5,-1654.7,6800.9,574.8,9119.8,7558
8331,4722.5,-9450.2,-1652.8,6801.7,575.9,9121.4,7560.4
8330.4,4722.4,-9450,-1652.1,6803.2,576.6,9121.9,7560.8
8317.7,4724.6,-9453.8,-1652.3,6804,576,9121.1,7560.4
8313,4722.2,-9458.9,-1651.8,6801.3,571.3,9116.8,7555.1
8313.6,4716.1,-9460.1,-1656.9,6796.8,567.1,9111.5,7550.3
8310.2,4714,-9463.5,-1658.7,6795,566.5,9110.2,7549
8313.5,4715,-9461.4,-1657.9,6795.8,567.9,9111.1,7549.9
8318.9,4715.5,-9458,-1655.4,6793.8,566.1,9108.6,7548
8319.5,4717.7,-9456.6,-1652.4,6795.2,568.6,9110.9,7550.3
8322,4718.8,-9454.5,-1651.6,6799.3,572.7,9115.2,7554.4
8318.4,4718.8,-9453.7,-1651,6800.2,574.5,9115,7556
8316.9,4720.1,-9450.7,-1651.8,6799.8,576.5,9114,7557.5
8314.8,4718,-9455.3,-1654.7,6801,575.2,9114.8,7557.2
8315.9,4713.7,-9458.1,-1657.4,6797.8,571.1,9111.5,7552.2
8315.4,4713.2,-9459.7,-1657.6,6795.6,569,9110.1,7550
8316.9,4713.4,-9461.5,-1657.8,6795.6,567.3,9110.3,7548.7
8314,4714.9,-9461.2,-1657.6,6797.1,568.4,9110.9,7549.7
8315.5,4716.8,-9458.6,-1658,6797.8,570.8,9112,7551.9
8314.8,4720.1,-9459.3,-1658.9,6799.5,572.6,9113.8,7554
8310.4,4720.3,-9462.2,-1661.7,6803,575.9,9117,7556.5
8312.7,4720.9,-9459.8,-1659.1,6801.6,573.3,9114.9,7553.4
8311.8,4715.4,-9455.4,-1659.4,6799.2,568.9,9111.4,7548.9
8310.6,4708.2,-9453.1,-1660.9,6797.4,566,9108.8,7546.3
8317.2,4708.9,-9461.7,-1658.9,6797.9,566.3,9109.3,7547.5
8319.7,4711.7,-9459.2,-1656.5,6799.2,568.1,9110.4,7549.5
8320.7,4711.4,-9455.3,-1655.3,6802,570,9112.8,7551.7
8323.9,4713.4,-9454.4,-1656.2,6803.5,571.3,9113.6,7553.3
8324.3,4717.1,-9454.3,-1657.4,6803.3,572.3,9113,7555.2
8320.5,4716.9,-9455,-1655.6,6802.7,570.9,9112,7553.5
8324.9,4712.1,-9456.4,-1657.8,6798.4,566.6,9107.3,7548.7
8319.4,4707.1,-9459.3,-1658.6,6797.2,565.3,9105.9,7547.4
8318.8,4704.5,-9458.1,-1657.5,6793.8,561.9,9102,7544.1
8320.3,4705.5,-9457.3,-1659.6,6795.9,563.4,9104.2,7544.7
8320.3,4709.5,-9457.2,-1658,6797.6,565.1,9105.8,7546.2
8316.8,4713.6,-9458.8,-1654.9,6800.7,567.9,9109,7549.8
8316.3,4712.2,-9460,-1653.4,6801.1,567.8,9109.9,7551.3
8315.7,4706.6,-9460.5,-1660.1,6798.3,565.9,9107.6,7549.2
8312.3,4704.9,-9461.8,-1663,6795.6,564.9,9105.4,7547.9
8313.4,4701,-9461.9,-1663.6,6792.5,562.8,9102.6,7545.8
8316.7,4693.7,-9461,-1666,6788.4,558.2,9098.7,7540.4
8313.8,4694.8,-9462.8,-1666.7,6789,559.3,9099.6,7541.5
8311.1,4698.7,-9462.6,-1666.1,6792.8,563.9,9104.1,7546.4
8311.8,4701.8,-9459.3,-1664.9,6795.5,567.5,9107.5,7549.7
8317.6,4705.9,-9451.5,-1663.4,6801.1,574.7,9113.9,7555.7
8319.8,4709.9,-9452.6,-1663.2,6805.4,577.4,9118.9,7559.4
8319.5,4708.2,-9454.4,-1662.7,6804.6,574.8,9117.5,7557.2
8318.7,4707.5,-9456.6,-1662.7,6801,570.4,9114.8,7553
8318.1,4703.8,-9459.6,-1664.9,6794.4,562.5,9109.3,7545.8
8315.5,4701.4,-9460.9,-1664.5,6792.1,560.3,9107.2,7544.3
8314.1,4703,-9461.3,-1662.9,6794.9,562.7,9110.5,7547.7
8314.7,4703.5,-9461.4,-1663.7,6797.9,565.3,9113.8,7550.7
8314.2,4710.2,-9462.2,-1662.2,6804.3,571.6,9120.5,7558.6
8319.1,4716,-9459.1,-1657.5,6807.2,573.8,9123.1,7561
8319.4,4715.5,-9459.5,-1656.5,6804.9,572.6,9121.4,7560.3
8319.2,4714.1,-9459.8,-1656.2,6799.8,568.5,9117.4,7556.6
8319.3,4713,-9459.2,-1656.8,6796.8,564.6,9114.2,7552.5
8314.3,4709.4,-9459.6,-1659.6,6794.5,563,9112.3,7550.7
8307.4,4709.5,-9454.2,-1661.8,6793.5,561.8,9111.2,7549.4
8313.3,4711.1,-9457.9,-1660.4,6794.1,562.2,9111.9,7550
8320.1,4715.3,-9463.2,-1658.1,6799.1,567.1,9117,7555
8320.4,4719.8,-9457,-1654.2,6802.8,569.7,9120,7557.8
8317.3,4721,-9458.1,-1652.8,6804.8,570,9121.8,7557.5
8323.8,4716.1,-9458,-1654.3,6803.5,568,9119.6,7555.1
8322.1,4712.6,-9457.9,-1653.9,6796.6,562.6,9112.6,7549.4
8311.9,4709.9,-9459.8,-1658,6794.4,561.2,9110.8,7547.1
8312.7,4707.7,-9461.3,-1661.8,6793,559.1,9108.8,7543.8
8308.3,4712.7,-9463.4,-1658.2,6794.6,560.6,9111.4,7546
8309,4715.2,-9462.6,-1654.1,6794.5,560.3,9112.8,7546
8315.3,4714.3,-9458.3,-1657.6,6794.2,560.7,9112.6,7546.1
8316,4714.7,-9457.1,-1658.2,6795.9,563.3,9113.9,7548.9
8320.7,4715.2,-9455.6,-1657,6794.5,560.8,9112.4,7546.6
8318.6,4711.6,-9457.1,-1658.9,6791,556.7,9108.8,7542
8313.5,4705.2,-9460.6,-1661.8,6788,554.7,9106.2,7538.9
8310.3,4699.8,-9463,-1664.9,6786.9,553.9,9105.5,7537
8309.7,4694.2,-9460.8,-1666.4,6789,556.1,9108.1,7538.7
8311.3,4692.7,-9455.4,-1665.1,6795.8,563.9,9114.9,7545.8
8313.4,4697.1,-9455.7,-1662.6,6800.3,567.5,9119.7,7551.3
8316.3,4704.9,-9454.8,-1659.5,6801.7,568.6,9121.4,7552.8
8316.3,4713.9,-9456.1,-1657.6,6800.2,567.1,9120.2,7551.6
8314.2,4717.3,-9461.2,-1657.1,6794.5,560.8,9113.9,7545.4
8313.7,4715.8,-9461.8,-1658.2,6789,556.3,9108.2,7540.5
8311.4,4714.4,-9463.2,-1661.8,6785.7,554.1,9105.2,7537.6
8306.9,4713.6,-9466.4,-1664.5,6783.7,553.8,9103.8,7536.6
8303.4,4717,-9467.5,-1663.7,6790.2,561,9111.5,7544.4
8310.4,4719.7,-9462.3,-1658.8,6794.1,563.7,9115.1,7547.4
8316.3,4719.7,-9458.6,-1654.8,6796.1,564.6,9117.1,7549.2
8313.7,4725.2,-9457.9,-1650.1,6797.7,567,9119.6,7552.6
8310.1,4728.9,-9459.1,-1650.1,6797.1,565.8,9119.5,7551.3
8311.7,4728.2,-9459.7,-1652.2,6794.1,562,9116,7547.3
8312,4726.1,-9460.7,-1652.1,6789.4,558,9110.6,7543.8
8310,4719.6,-9464.1,-1657.7,6787.1,556.3,9108.4,7542
8299.9,4723.4,-9467.4,-1660,6791.5,560.6,9113.3,7546.8
8306.5,4727,-9464.4,-1657,6792.7,561.3,9115.3,7547.8
8309.3,4729.2,-9461.8,-1653.4,6795.7,563,9118.3,7549.2
8312.9,4731.1,-9458.4,-1648.7,6799.6,565.2,9121.7,7552
8315.3,4729.1,-9456.7,-1648,6798,562.5,9119.6,7548.7
8313,4728.2,-9457.8,-1650.3,6795.1,559,9116.7,7545.3
8308.7,4725.4,-9461,-1652.8,6792,556.3,9114,7542.1
8300.7,4724.2,-9466.2,-1653.4,6789.2,554.3,9111.9,7539.5
8297.2,4720.5,-9469,-1653.4,6785.3,550.1,9108.3,7535.9
8301.6,4717.5,-9462.6,-1655.8,6783.8,549.5,9107.1,7535.3
8297.3,4718.2,-9457.3,-1655,6787.4,553.6,9111.5,7539.6
8307.1,4721,-9462.9,-1653.3,6792,556.9,9115.5,7544
8314.2,4721.5,-9462.6,-1652.6,6792.1,555.4,9114.4,7542.2
8311,4720.8,-9461.2,-1653.4,6792,555.3,9114.3,7542.1
8306.9,4719.6,-9462.6,-1654.5,6790.9,555.1,9113.8,7542.5
8301.1,4715,-9464.6,-1657.7,6788.5,553.7,9111.7,7539.9
8301.2,4714.2,-9462.2,-1658.9,6788.4,556.2,9112.3,7540.4
8307.1,4718.4,-9462.2,-1657.5,6789.6,557.1,9114.9,7541.7
8309.3,4720.6,-9461.4,-1655.9,6792.2,558.3,9117.4,7544.1
8307.5,4723.6,-9461.3,-1654.3,6793.7,561.1,9119.5,7548.3
8310.6,4723.6,-9460.3,-1653.9,6794.2,560.1,9120.3,7548.8
8305.9,4722.8,-9461.7,-1654.6,6794.7,560.5,9120.8,7549.1
8302.3,4720.7,-9463.5,-1658.7,6793.1,559.9,9119.3,7548
8302.6,4715.6,-9465.9,-1664.2,6790.5,558.5,9117.3,7546.1
8294.9,4717.1,-9470.9,-1664.2,6792.2,561.1,9118.7,7549
8295.9,4715.2,-9469.6,-1662.2,6792,560.4,9118.7,7547.8
8300.9,4714.7,-9466.1,-1660.5,6792.3,560.4,9118.3,7547.9
8307.6,4718.2,-9462.1,-1655.2,6793.7,561.9,9119.2,7549.8
8310.5,4721.8,-9460.2,-1651.7,6797.2,563.7,9122.7,7552.4
8311.7,4725.4,-9459.5,-1651.4,6798.7,564.2,9123.9,7553.9
8316.2,4726.2,-9458.6,-1653.2,6797.1,562.6,9122.4,7552.6
8311.9,4725.1,-9461.4,-1656,6794,559.7,9119.7,7549.4
8303,4725.9,-9465.7,-1657.7,6794.9,560.2,9120.9,7549.1
8309.7,4720.9,-9464.1,-1659,6792.1,556.6,9117.6,7544.1
8307.4,4720.7,-9465.1,-1657.8,6791,555.1,9116.6,7542
8310.6,4723.2,-9461,-1654.2,6793.2,556.3,9118.9,7544.4
8316.7,4723,-9457.5,-1652.4,6791.3,554.6,9117.4,7543.6
8319.7,4725.8,-9455.8,-1652,6793.5,555.6,9120.2,7544.9
8317.8,4725.9,-9457.6,-1653.2,6795.1,556.4,9122.7,7544.9
8314.3,4723.9,-9460.4,-1654,6795.1,556,9122.9,7543.9
8308.2,4722.6,-9464.5,-1653.5,6790.5,551.2,9118,7539
8305.5,4719.5,-9465.7,-1657.9,6786.9,549.1,9114.6,7536.1
8305.5,4715,-9465.9,-1662,6784,549.1,9113,7535.5
8311.2,4715.7,-9462.5,-1663.4,6785.4,551.3,9115.1,7538
8319.1,4717.5,-9459,-1664.1,6784.7,549.8,9113.7,7537.1
8316.4,4718.8,-9458.2,-1661.3,6789.2,554.4,9118.5,7542.8
8314.4,4721.8,-9458.2,-1658.1,6792.6,558.2,9121.5,7546.9
8315.2,4721.6,-9456.6,-1657.5,6793.7,560.2,9122,7546.9
8314.4,4722.1,-9453.7,-1657.1,6794.4,562,9122.9,7547.3
8314.8,4721.4,-9455.7,-1656.9,6794.2,560.6,9123.3,7547.2
8314.3,4718.6,-9457.7,-1658.7,6792.5,557.7,9121.4,7544.7
8316.4,4719.9,-9458.9,-1658.5,6791.7,556.7,9121,7543.2
8320.5,4720.5,-9459.1,-1657.2,6790.3,554.5,9120.2,7542.4
8317.7,4720.2,-9457.8,-1658.4,6792.2,556.2,9122,7544.4
8316,4724.3,-9457.4,-1656,6794.8,559.6,9124.7,7548.4
8318.2,4726.5,-9457,-1655.5,6795.4,561.4,9125.7,7551.2
8314.3,4728.7,-9459.3,-1656.4,6798.5,564,9128.4,7554.4
8313.7,4726,-9453.3,-1655.9,6797.7,562.2,9127.4,7551.3
8308.5,4720.7,-9448.9,-1657.1,6794.5,558.6,9123.8,7546.8
8317.4,4719.7,-9455.2,-1656.9,6791.9,555.9,9120.4,7543.1
8319.6,4722.7,-9457,-1654.5,6791.4,555.9,9120.1,7543
8319.7,4725.7,-9453.9,-1652.8,6792.4,557.6,9122.3,7545.7
8322.7,4729.3,-9452.5,-1650.6,6794.9,560.9,9125.1,7549.3
8330.2,4729.2,-9450.7,-1652.1,6794.1,559.5,9123.9,7547.8
8319.3,4731.9,-9453.4,-1652.4,6798.9,563.7,9129.1,7551.8
8317.5,4730.8,-9454.1,-1651.3,6799.1,563,9129.6,7550.7
8319.1,4729.5,-9454,-1652.5,6796.1,560,9126.7,7547.2
8318.7,4724.4,-9455.1,-1654.3,6792,555.7,9122,7542
8320.5,4721.3,-9454.1,-1654.7,6789.2,552.4,9119.5,7538.8
8320.1,4723,-9453.9,-1654.6,6788.6,552.2,9120.1,7539.2
8321.8,4725.8,-9452.8,-1652.8,6789.3,554.3,9121.6,7541.8
8321.8,4726.2,-9452.1,-1650.3,6791.5,556.5,9123.7,7544.1
8315,4727.5,-9454.5,-1645.6,6793.5,556.3,9125.1,7544.5
8317.7,4726,-9453.1,-1648.4,6789.7,553.2,9121.6,7540.7
8317.5,4720.7,-9454,-1653.6,6789.1,553.3,9121,7540.2
8317.9,4718.3,-9456,-1655.7,6786.2,549.7,9117,7537
8320.4,4717,-9456.5,-1655.9,6781.4,544.7,9111.6,7532
8319.3,4716.6,-9457,-1656.4,6781.1,545.6,9111.6,7532.9
8319.5,4720.9,-9455.9,-1654.5,6784.2,548.8,9115.2,7536
8315.8,4724.1,-9454.3,-1651.3,6788.6,553.6,9119.8,7540.5
8313.8,4725.1,-9450.2,-1649.2,6795,562.6,9127,7549.1
8310.4,4723.8,-9454.9,-1648.6,6801.4,567.2,9133.8,7554.7
8310.5,4720,-9458.6,-1651.7,6802.3,565.5,9134.5,7553.6
8320.1,4715.2,-9457.9,-1658,6799.4,560.8,9131.3,7549.1
8320.9,4709.9,-9459.4,-1661.2,6791.5,552.7,9123.6,7540.3
8323.7,4714.1,-9457.8,-1659.3,6783.8,546.9,9115.8,7533.9
8323.8,4716.9,-9457,-1657.6,6785.1,549,9117.8,7535
8327,4720.8,-9456.2,-1657.9,6787.3,551.8,9120.8,7537.9
8326.6,4726.2,-9457,-1657.6,6795.7,561.2,9130.1,7548.5
8331,4725.2,-9454.5,-1656,6801.2,566.7,9135.7,7554
8327.5,4719.1,-9453.7,-1657.7,6801.9,567.5,9136.7,7554.9
8318.7,4714.9,-9455.5,-1658.8,6802.4,567.9,9137.2,7556.2
8322.6,4711.3,-9451.6,-1662.3,6797.2,563.6,9131.8,7551
8319.2,4709.2,-9446.6,-1665,6794,560.7,9128.2,7547.6
8323.4,4708,-9454,-1667.2,6794.7,560.9,9128.9,7547.1
8325.3,4706.7,-9459.4,-1667.7,6798.1,564.5,9133.2,7550
8326.3,4707.5,-9457.1,-1666.7,6801.5,569.8,9137.1,7554.8
8334,4711.6,-9451.9,-1661.5,6803.4,572.7,9139.4,7557.7
8338.4,4715.2,-9449.3,-1658.7,6800.8,572.6,9137.7,7558.1
8339.7,4714.5,-9448.9,-1657.7,6798.2,570.4,9134.8,7556.4
8339.8,4705.7,-9449.5,-1661,6795.4,566.4,9131.8,7553
8334.3,4700.5,-9451.8,-1665.1,6793,563.8,9129.4,7550.9
8334.6,4699.6,-9452.4,-1666.3,6789,561.8,9125.7,7549.1
8332.8,4702.8,-9452.5,-1663.7,6789.6,562.9,9126.9,7549.7
8327.7,4706.5,-9455.5,-1659,6790.6,562.7,9128.4,7549.5
8335,4704.5,-9450.6,-1660.3,6792.6,563.6,9131.1,7550.2
8337.9,4703.6,-9448.9,-1661.3,6794.6,565.5,9133,7552.3
8338.4,4704,-9448.6,-1660.6,6795.5,566.1,9133.8,7552.4
8339,4699.7,-9450,-1663.3,6792.1,560.5,9129.2,7546.1
8335,4697,-9452.5,-1666.1,6789.1,557.3,9126.4,7542.5
8334.3,4696.7,-9453.1,-1666.6,6786,556.3,9124.1,7541.1
8335,4694.6,-9452.4,-1669.2,6787.3,557.8,9125.2,7541.6
8336.7,4701,-9447.6,-1665.4,6792.5,564.6,9131,7547.6
8337.4,4705.4,-9449.2,-1664.4,6798.8,568.4,9137.6,7552.6
8340.2,4708.2,-9448.5,-1662.9,6802.6,570.8,9141.9,7556.3
8343.1,4708.9,-9448,-1660.9,6803.4,570.5,9142.2,7557
8343.4,4704.1,-9450.1,-1664,6799,564.9,9138,7552
8343.4,4700.6,-9450.6,-1667.6,6794.5,561.5,9133.6,7548.7
8335,4698.1,-9454.2,-1669.6,6793.3,561.5,9131.8,7546.9
8337.4,4695,-9456.1,-1671.8,6791,560.5,9130,7544.9
8333.1,4700.1,-9458.1,-1670.4,6796.6,567.2,9136.5,7552.9
8328.7,4705.6,-9454.4,-1664.9,6803,573.1,9144,7559.2
8339.2,4709.9,-9449.2,-1661.8,6804,573.3,9145.5,7559.8
8338.9,4714.1,-9449.1,-1659.1,6805.7,573.8,9146.9,7560.9
8339.2,4712.6,-9449.8,-1657.9,6804.7,573,9146.5,7560.5
8334.7,4710.1,-9452.9,-1659.2,6802.4,571.6,9145.4,7558.5
8333,4704.2,-9453.6,-1664,6801,570.5,9143.6,7556.3
8328.7,4699.6,-9456.2,-1668.1,6797.4,567.4,9139.2,7552.9
8329.3,4701.1,-9456.8,-1669.6,6797.2,568.5,9138.9,7554.5
8333.1,4704.2,-9453.3,-1665.8,6800,571.8,9142,7558.1
8331.3,4706.7,-9452.8,-1663.8,6803.6,575.6,9146,7562.7
8331.8,4707.5,-9453.2,-1661,6807.8,579.7,9150.8,7567.4
8331.8,4701.6,-9453.3,-1661.4,6806.9,577.4,9150.4,7565.1
8330.7,4696.5,-9453.8,-1664.6,6805.5,574.7,9149,7562
8333,4694.2,-9453.4,-1666.7,6802.3,571.6,9144.7,7558.6
8329.3,4694.6,-9457,-1667.5,6798.7,567.6,9140.9,7554.2
8326.4,4693.4,-9459.1,-1668.1,6794.9,563.8,9137.3,7550.2
8329.1,4693.3,-9451.9,-1670.8,6792.3,563,9136,7548.6
8329.1,4695.4,-9447.2,-1670,6794.8,565.5,9139,7549.6
8337.9,4697.9,-9455.4,-1667,6799.4,570,9143.8,7553.8
8342.2,4698.1,-9455.7,-1664.9,6800.8,570.1,9145.6,7554.3
8340,4694.8,-9454.3,-1666,6800.7,569.9,9146.2,7554.6
8333.8,4691.1,-9456.5,-1669.6,6801,570.3,9146.5,7555.1
8331.6,4690.3,-9455.8,-1669.9,6799.6,569.6,9144.6,7553.9
8331,4689.5,-9454,-1671,6799.8,572.5,9145,7555.2
8333.2,4691.9,-9456.3,-1670,6802.1,575.3,9147.5,7558.2
8336,4696.6,-9455,-1666.9,6803.2,576.8,9148.1,7560.1
8338.3,4703.6,-9453.7,-1663.3,6805.3,577.9,9149,7562.2
8342.9,4707.3,-9451,-1660.6,6805.7,576,9147.6,7561.1
8346.7,4702.8,-9447.5,-1660.8,6806.6,577.3,9147.1,7562.4
8342.4,4700.5,-9450,-1660.8,6805.6,577.3,9144.7,7561.9
8339.4,4695.4,-9453.4,-1664.8,6803.3,576,9141.5,7559.8
8324.9,4698.1,-9456.6,-1666.1,6806.1,579.8,9144.7,7564.2
8331.2,4699.3,-9452.5,-1667,6804.5,578.5,9142.3,7561.9
8332.8,4698.3,-9451.2,-1668.4,6807.5,580.3,9143.7,7564.3
8336.8,4699.3,-9447.7,-1665.3,6808.8,580.7,9143.8,7566.2
8338.8,4702.8,-9446.1,-1663.1,6810.8,582.1,9144.3,7567.9
8341.3,4705.5,-9445.1,-1661.6,6813.7,584.6,9147.1,7570.7
8338.8,4706.3,-9445.7,-1661,6816,585.6,9148.2,7572.4
8335.5,4705.8,-9448.8,-1662.5,6811.9,582.6,9142.9,7569.7
8332.4,4704.1,-9451.7,-1665.3,6810.1,583.6,9140.5,7570.5
8333.2,4701.3,-9452.4,-1665.1,6807.2,582.1,9136.8,7568.4
8333.8,4701.3,-9452.4,-1664.3,6806.3,581.1,9134.7,7567.1
8337.2,4704.3,-9449.9,-1661.8,6808.5,581.4,9135.5,7568.3
8346.3,4705.7,-9444.2,-1658.9,6806.8,580,9133.7,7568
8343.9,4706.3,-9443.8,-1658,6808.3,580.6,9134.5,7569.3
8340.6,4708.3,-9445.2,-1656.8,6809,581.2,9134.2,7569.9
8336.9,4707.6,-9448.8,-1659,6807.3,580.3,9132.6,7569.2
8328,4704.9,-9453.6,-1659.7,6804.3,575.7,9129.1,7564.9
8329.1,4701.8,-9453.5,-1664.8,6797.8,568.8,9122.6,7557.4
8329.1,4697.1,-9454,-1668.7,6794.8,566.2,9119.6,7555
8332.3,4696.7,-9451.7,-1668.8,6795.9,567.2,9120.7,7556.2
8335.4,4696.6,-9450.1,-1668.3,6795.8,566.7,9120.2,7556.5
8336.1,4697.8,-9449,-1666.6,6796.1,568.5,9120,7559.9
8334.9,4698.2,-9448.9,-1666,6799.1,570.6,9121.9,7562.4
8331.7,4697.3,-9449.5,-1666.2,6800.3,573.1,9122.1,7563.8
8332.5,4697.9,-9446.6,-1666.7,6799.2,575.1,9120.4,7563.8
8334.7,4699.2,-9448.3,-1668.2,6800,574.8,9121,7563.4
8333.3,4698,-9452,-1668.2,6796.8,571,9117.5,7559.7
8335.4,4696.9,-9453.9,-1669.3,6795.6,568.9,9115.3,7557.8
8335.2,4697.9,-9451.6,-1667.9,6795.9,567.5,9115,7556.4
8329.5,4699.2,-9443.7,-1667.4,6796.6,567.7,9114.9,7557
8338.7,4701.1,-9449.1,-1667.1,6798.2,569.6,9115.6,7559.4
8345.1,4701.4,-9453.3,-1667.1,6800,571.9,9116.8,7561.2
8338.2,4703.9,-9452.3,-1668,6804.6,576.6,9120.8,7565.1
8331.2,4704.8,-9450.8,-1664.5,6805.7,576.2,9120.9,7564.3
8333.6,4700,-9452.2,-1665.6,6803.3,571.8,9117.5,7559.5
8334.8,4700.3,-9452.6,-1666.7,6800.4,570.5,9115.3,7559.1
8335.8,4702.1,-9451.6,-1667.4,6801.2,571.3,9116.3,7560.5
8338.7,4703.8,-9449.8,-1665.6,6803.4,572.1,9118.6,7561.5
8339.3,4706.4,-9449.4,-1663.2,6805.9,574,9121.8,7563.8
8339.7,4706.5,-9449.1,-1662.4,6809,575.7,9124.9,7565.5
8338.5,4708.2,-9449.1,-1662.9,6812.1,578.5,9127.8,7568.5
8336.4,4708.3,-9449.9,-1661.4,6810.3,576.4,9125.4,7566.1
8337,4704.1,-9449.6,-1663.3,6809.5,574.6,9125.1,7563.7
8338.8,4700.3,-9449.7,-1667.7,6806.8,572.3,9123.1,7561.3
8337.4,4699.3,-9451,-1666.5,6803,569.1,9120,7558.3
8339.8,4698.4,-9449.7,-1667.2,6803.3,569.4,9121.2,7558.7
8338.5,4700.4,-9450,-1666.2,6806.7,572.6,9124.1,7562.4
8333.2,4704.2,-9451.4,-1662,6811,576.3,9128.7,7567.3
8328,4705,-9453.3,-1659.3,6811.7,576.7,9130.2,7567.2
8333.7,4704,-9450.2,-1662.1,6807.5,573.4,9126.6,7563.1
8336.6,4701.2,-9448.9,-1665,6804.7,570.9,9123.4,7559.3
8333.4,4700.3,-9451.1,-1666.7,6802.7,570.1,9121.9,7556.9
8334.6,4696.6,-9452.3,-1667.9,6798.5,566,9117.9,7551.8
8333.9,4694.5,-9453.2,-1669.7,6799.5,567.3,9119.1,7552.9
8335.3,4696.1,-9451.4,-1671.3,6804.4,571.4,9123.5,7556.7
8337.5,4698.8,-9447.8,-1667.6,6807.5,574.5,9126.4,7558.6
8345.1,4703.4,-9440.9,-1661.7,6812.1,580.3,9131.7,7563.3
8352.3,4706.6,-9440.6,-1658.3,6814.9,581.1,9134.7,7566
8343.4,4705.7,-9443.8,-1656.9,6815,579.9,9134.6,7566.7
8341.1,4703.6,-9446.8,-1660.3,6811.9,577.3,9132.6,7564.9
8338.5,4701.1,-9450.5,-1663.9,6806.9,571.9,9128.2,7560.2
8338.5,4697.5,-9450.2,-1667.2,6803.6,570,9124.8,7557.7
8336.3,4699.3,-9450.1,-1666.3,6804.8,572.5,9126.4,7559.7
8339.7,4701.4,-9450.8,-1666,6807.9,575.6,9129.8,7562.6
8334,4709.6,-9453.9,-1663.1,6814.2,583,9137.2,7570.8
8339.5,4711.9,-9449.4,-1658.7,6816.5,586.2,9140.5,7573.6
8342,4710.1,-9448.1,-1659.1,6815.3,584.9,9139.4,7572
8339.5,4706.9,-9449.2,-1659.9,6814.6,583,9137.9,7570.2
8340.7,4700.8,-9449.1,-1662.1,6813.3,580.2,9136.2,7567.5
8338.1,4692.5,-9451.9,-1667,6811.8,577.9,9135,7565
8333.3,4687.3,-9449,-1669,6812.3,578.6,9136.4,7565.8
8324.6,4690.6,-9447.6,-1666.7,6813.7,581.3,9138.2,7569.4
8331.6,4702.8,-9456.7,-1663.7,6814.4,583.5,9139.9,7572.2
8338.2,4713.6,-9453.1,-1657,6815.5,583.6,9140.3,7572.7
8340.5,4718.1,-9448,-1653.1,6813.9,582,9138.7,7571.1
8342.9,4716.6,-9447.1,-1653.9,6811.4,580.4,9136.8,7569
8343.8,4715,-9447.6,-1653.7,6806.8,575.3,9131.5,7563.3
8343,4714.4,-9449.3,-1655.3,6803.1,572.2,9128.3,7560.4
8336.5,4714.2,-9452.9,-1656.8,6802.3,571.7,9127.6,7560
8326.7,4713.2,-9456.5,-1655.3,6806.8,576,9132.6,7564.9
8324.6,4712.7,-9457.4,-1654,6810.5,578.2,9136.3,7567.7
8328.8,4716.6,-9455,-1653.4,6809.2,577.8,9134.8,7567.1
8332.7,4724.5,-9451.9,-1650.1,6808.7,578.4,9135,7566.8
8333.5,4728.6,-9450.2,-1648.4,6808.1,578.5,9135.1,7566.1
8330.8,4725.6,-9452.4,-1651.2,6805.3,575.1,9131.7,7562.6
8324.8,4717.9,-9455.9,-1656.7,6805.8,576,9132.1,7563.5
8321.2,4714.1,-9459,-1658,6804.9,575.5,9130.8,7562.5
8324.3,4717.8,-9455.3,-1655.3,6801.7,574.7,9128.1,7560.5
8331.5,4725.6,-9447,-1652.8,6804.1,579.2,9132,7563.3
8330.5,4734.6,-9447.8,-1648.9,6810.7,583.9,9139.2,7569.8
8338.8,4736.8,-9445.4,-1646.4,6814.1,584.2,9142,7571.4
8336.4,4733.9,-9446.4,-1644.9,6817.3,585.7,9145.3,7574.4
8330.1,4728.8,-9451.5,-1648,6814.8,582.2,9143,7571.2
8324.7,4726.1,-9454.7,-1652.2,6811.6,579.4,9139.8,7567.5
8323.2,4725.2,-9456,-1654.2,6808.9,577.1,9136.7,7564.1
8320,4722.5,-9459.1,-1656.7,6806.9,576.4,9135.1,7562.2
8315.1,4727.1,-9461.5,-1656.2,6812.6,583.1,9142.1,7569.4
8321,4730.9,-9456.3,-1651.3,6814.5,585.5,9145,7571.8
8326.1,4733.2,-9453,-1647.5,6815.1,586.4,9145.4,7573.4
8331.6,4735.8,-9449.5,-1646.1,6817.3,587.4,9146.8,7575.6
8333.5,4735.3,-9448.7,-1647.2,6817.1,586.2,9146.2,7575.5
8329.1,4732.6,-9451.8,-1650.4,6815.5,583.9,9143.8,7573.3
8324,4728.6,-9455.9,-1650.9,6812.6,582.4,9141.4,7571.6
8318.6,4723.6,-9459.3,-1653.7,6808.7,579.6,9137.8,7568.7
8318.2,4726.3,-9459.8,-1654.9,6808.8,580.7,9138.2,7569.5
8323.9,4727.7,-9455.4,-1652.2,6812.4,583.2,9142.5,7571.9
8327.2,4731.8,-9453.2,-1649.5,6813.9,584.7,9143.9,7574.3
8332.9,4734.1,-9451,-1645.9,6816.6,587.1,9147.2,7577.3
8336.6,4732.5,-9449.9,-1644.5,6815.4,585.1,9146.3,7575.5
8329.7,4731.6,-9452.1,-1646.2,6813.4,582.9,9143.7,7573.7
8326.7,4728.8,-9452.6,-1649.1,6810,579.6,9140.3,7569.5
8320.6,4727.7,-9456.8,-1650.5,6806.7,576.6,9137.7,7565.3
8313.9,4725.3,-9460.4,-1649.7,6803.1,573.4,9134.7,7561.9
8318.6,4722.7,-9457.4,-1652.3,6801.3,572.6,9132.9,7560.7
8322.2,4726.2,-9455.2,-1651.1,6803.1,574.7,9135.1,7562.1
8322.3,4729.4,-9454.4,-1651.1,6807.8,579.3,9140.2,7567
8329.2,4729.2,-9451.3,-1651.7,6807.4,578.7,9139.3,7566.2
8323.9,4728.3,-9451.6,-1650.9,6808.2,580.6,9140.5,7568.4
8315.2,4726.6,-9448.7,-1651.3,6805.6,578.9,9137.8,7566.4
8315.8,4723.5,-9447.8,-1650.2,6803.4,577.8,9134.6,7563.9
8320.1,4724.6,-9455.6,-1649.5,6804.1,580.7,9135.2,7565.4
8325.1,4728,-9454.6,-1649.3,6805.6,581,9137.7,7566.3
8322.5,4730.6,-9454.2,-1646.7,6807.5,583,9140.4,7568.6
8333.9,4730.8,-9450.7,-1645.3,6808,582.3,9140.9,7568.6
8328.1,4733.7,-9450.6,-1642.1,6811,582.8,9143.8,7571.3
8323.5,4734.3,-9450.9,-1642.9,6813.5,584.6,9145.4,7573.5
8324.9,4729.1,-9451,-1647.2,6812.2,583.5,9144,7571.7
8320.3,4722,-9456.3,-1653.2,6811,582.9,9143.5,7570.2
8314.7,4719.8,-9461.5,-1656.8,6813.5,586.8,9146.4,7574.4
8314.1,4721.5,-9460.8,-1654.4,6811.9,586.4,9145.6,7573.5
8314.5,4724.4,-9459.8,-1650.8,6811.1,585.7,9145,7572.5
8317,4729.7,-9457.8,-1646.2,6812.2,586.7,9145.7,7573.2
8321.5,4735.3,-9453.6,-1642.3,6814.6,587.7,9148.1,7574.5
8323.8,4741.2,-9450.5,-1640.4,6817.8,590.4,9151.4,7576.7
8324.8,4746,-9448.5,-1639.5,6817.1,590.3,9150.3,7575.8
8322,4742.9,-9449.9,-1642,6813.9,588.2,9146.8,7573.2
8320.3,4745.8,-9452.6,-1643.5,6812.8,589.5,9146.3,7574.5
8314.2,4748.8,-9455.9,-1641.5,6813.2,589.3,9146.7,7574.3
8315.8,4747.7,-9454.3,-1641.3,6812.6,587.5,9146,7572.4
8318.4,4746,-9450.9,-1640.2,6817.4,590.5,9150.2,7576.5
8323.1,4743.8,-9448,-1640.2,6819.1,591.6,9152,7577.8
8325.1,4751.1,-9445.5,-1638.2,6818.9,591.9,9152.2,7578.5
8322,4761.3,-9446.1,-1636.1,6817.4,591,9151.3,7577.3
8317.4,4767.4,-9448.6,-1633.8,6814.7,587.7,9148.4,7574.3
8310.7,4761,-9452.6,-1635.8,6813.5,585.2,9146.7,7572.1
8308.9,4750.6,-9455,-1642.6,6812.2,584.5,9145.3,7571.1
8305.9,4745.1,-9457.2,-1645.7,6809.9,582.5,9142.6,7568.2
8308.4,4746.5,-9456.3,-1645.3,6810.8,582.5,9143.7,7567
8314.2,4748.6,-9454,-1643.6,6811.4,582.1,9144.6,7566.7
8313.6,4751.3,-9453.4,-1642.5,6812.6,584.1,9146,7569.2
8315.1,4754.3,-9451.5,-1640.3,6815.2,586.8,9148.9,7572.4
8320.6,4752.5,-9448.1,-1642,6815.6,587,9148.4,7572
8319.7,4751.9,-9445.3,-1642.4,6816,589.1,9148.7,7572.9
8310.6,4755.5,-9450.5,-1639.5,6817.7,590.8,9151.8,7575.3
8311.6,4753.6,-9453.3,-1640.3,6813.2,587.3,9147.8,7571.7
8313.4,4752.4,-9454,-1640.5,6811.5,585.3,9146.7,7569.9
8315.8,4750.9,-9454.2,-1640.4,6811,583.6,9146.6,7569.1
8318.1,4751.2,-9451.4,-1640.5,6810.1,582.7,9145.8,7568.3
8318.8,4754.2,-9449.1,-1640.7,6813.3,586.9,9149.7,7573
8319.3,4756.2,-9450.4,-1642,6814.7,588.4,9149.9,7574.1
8312.6,4759.3,-9453,-1641.1,6818.3,591.5,9151.7,7578
8315.4,4757,-9450.8,-1638.6,6816.6,589.3,9148.1,7575.5
8315.9,4751.2,-9450.5,-1639.2,6814.3,586,9143.9,7572.1
8318.1,4749.1,-9448.7,-1639.7,6810.3,582.8,9138.7,7567.9
8317.6,4751.7,-9448.7,-1637.8,6810.1,582.4,9137.5,7567.1
8318.4,4753.3,-9449.5,-1636.8,6813.2,584.9,9139.4,7569.9
8318.8,4756,-9449.5,-1637.3,6816.8,587.9,9141.1,7572.9
8319,4757.3,-9449.9,-1639.1,6818.6,589.5,9142.1,7574.4
8318.4,4757.1,-9451.1,-1641,6818.8,590.5,9142.3,7575.3
8319.7,4756.8,-9449.8,-1640.1,6815.6,588.1,9138.2,7571.7
8317.2,4755.9,-9450.5,-1640,6812.4,585.2,9134.8,7568.9
8316.7,4750.6,-9452.4,-1642.1,6809.9,582.6,9131.8,7566.5
8315,4747.2,-9450.1,-1642.2,6806.6,578.2,9127.2,7562.1
8311.1,4748.8,-9444.2,-1642.2,6807.9,579.3,9128,7563.4
8318.4,4750.4,-9451.8,-1641.5,6809.9,580.6,9128.9,7564
8318.2,4752.9,-9457.3,-1638,6812.7,583.4,9130.9,7566.8
8311.9,4753.8,-9456.2,-1634.8,6815,583.7,9132.2,7568.5
8313.5,4749.1,-9454.8,-1638.7,6812,580.8,9128.3,7565.5
8313,4745.9,-9456.1,-1643,6809.6,579.8,9125.6,7563.3
8311.6,4746.6,-9456.5,-1643.8,6806.3,577.3,9121.4,7560.4
8314.2,4741.8,-9457.1,-1646.1,6801.8,572.3,9115.9,7556.2
8316.4,4741.3,-9457.2,-1646.6,6801,572.4,9115.1,7556.2
8307.8,4744.7,-9456.7,-1645.1,6805.7,576.7,9119.4,7560
8311.5,4746.4,-9453.7,-1643.3,6808.9,579.7,9121,7561.5
8316.4,4752.2,-9447.8,-1639.7,6814.1,586.7,9125.8,7567
8321.6,4757.2,-9447,-1638.5,6817.7,589.1,9128.8,7570.2
8317.6,4755.2,-9449.6,-1639,6816.9,587,9127.8,7568.3
8318.8,4753.4,-9450.7,-1639.4,6811.8,582.2,9122.9,7564.1
8318.2,4749.2,-9453.9,-1640.7,6804.6,574.5,9115.5,7557.4
8311.4,4744.3,-9456.6,-1641.2,6801.9,573.8,9113.7,7556.6
8314.7,4742.8,-9454.4,-1640.8,6802.3,575.4,9113.7,7558.4
8315.1,4744.4,-9455.4,-1641.3,6804.5,578.6,9115.6,7562.7
8310.7,4753.2,-9457.4,-1639,6812,587.3,9123.5,7572.4
8313.4,4759.3,-9452.7,-1633.2,6814.6,590.1,9126.3,7575.4
8315.8,4757.9,-9451.9,-1633.5,6812.5,586.8,9123.7,7572.4
8314.3,4755.6,-9452.9,-1635.6,6811.5,585.5,9122.2,7571.1
8313.6,4752.5,-9455,-1638,6808.3,582.6,9118.9,7567.6
8310.2,4749.1,-9457,-1640,6805.4,580.5,9116,7565.3
8307.8,4750.7,-9457.7,-1638.6,6804.3,580.3,9114.2,7565.2
8311.6,4750.4,-9456.9,-1639.7,6804.9,580.4,9114.7,7565.1
8315.8,4754.3,-9455.8,-1640.3,6809.6,585.4,9120.6,7570.7
8315,4759.2,-9454.9,-1636.6,6814.1,588.5,9125.5,7574.4
8314.5,4758.4,-9454.6,-1635.4,6813.7,587.6,9124.6,7573
8316.9,4757.2,-9454,-1634.4,6809.5,583.9,9120.4,7569.8
8318,4748.2,-9454.5,-1637.3,6806,579.8,9117,7566.3
8311.1,4742.1,-9458.8,-1641.8,6804.2,578.1,9115.7,7564.2
8303.6,4735.8,-9463.8,-1645.7,6803.5,577.6,9114.6,7562.3
8304.7,4739.7,-9465.3,-1644.7,6803.8,578.2,9115.1,7562.4
8298.1,4748.2,-9466.2,-1639,6802.3,575.7,9113.5,7559.6
8300.6,4752.3,-9461.4,-1639.1,6802.6,575.7,9113.5,7560
8308.9,4757.9,-9458,-1637.1,6801.2,576.1,9112.7,7560.7
8309.6,4762.1,-9457.5,-1635.2,6800.3,576.8,9112.5,7561.8
8311.4,4759.6,-9457.5,-1636.4,6797.2,572.7,9108.7,7556.9
8307.2,4756.1,-9459.4,-1639.1,6795.6,571.2,9106.9,7554.8
8304.7,4752.7,-9460.1,-1641.3,6794.7,570.7,9105.4,7552.9
8302.9,4753.4,-9459.2,-1640.1,6794.6,572.7,9105.4,7553.3
8305.3,4763.4,-9454.2,-1635.2,6798.2,579.3,9109.3,7558.7
8310.9,4773,-9452.7,-1629.3,6801.1,581,9112.8,7563
8316.4,4772.4,-9450.4,-1627.5,6804.6,582.9,9117.4,7566.7
8315.6,4768.1,-9451,-1629.1,6807.4,584,9120.4,7568.9
8308.9,4767.1,-9457.9,-1630.5,6804.7,579.5,9117.4,7565.3
8305.9,4767.9,-9460,-1632.3,6801.2,575.1,9113.7,7560.7
8303.5,4768.3,-9461,-1633.7,6797.6,571.8,9109.8,7556.5
8299.3,4764,-9464.6,-1636.8,6796.5,572.2,9108.7,7555.9
8295.8,4764.7,-9466.5,-1637,6805.5,580.8,9117.3,7564.5
8298.4,4766.4,-9464,-1633.4,6811.7,585.6,9122.7,7569.4
8301.4,4771.3,-9458.5,-1629,6810.1,585.5,9120.9,7570.1
8300.4,4774.5,-9448.3,-1626,6811.7,586.8,9122.5,7571.8
8305.7,4773.4,-9450.3,-1626.8,6812.4,586.7,9123.2,7571.9
8306.4,4769.1,-9460.1,-1631.5,6811.8,586.4,9122.6,7570.9
8307.3,4767.4,-9457.9,-1634.9,6808.6,582.9,9118.5,7568
8303.3,4765,-9459.8,-1637.4,6804.7,579.1,9114.3,7564.2
8300.4,4766.8,-9462.4,-1639.5,6806.3,581.2,9116.6,7565.3
8300.6,4767.6,-9462.4,-1638.6,6810.3,586.2,9121.5,7569.6
8304.1,4768.1,-9460,-1635.3,6812.2,586.3,9122.5,7569.9
8313.2,4775.3,-9455.1,-1629.5,6814.9,584.6,9123.9,7569.5
8316.9,4774.2,-9452.5,-1626.1,6812,582.5,9121.6,7568
8305.4,4772.1,-9455.1,-1627.3,6811.2,583.9,9121.6,7569.7
8302.8,4767.3,-9458.1,-1632.1,6808.3,581.4,9118.5,7566.8
8296,4763.4,-9462.1,-1634.2,6806.3,580,9117.2,7564.1
8291.4,4762.4,-9465.2,-1632.3,6801.4,576.3,9112.6,7559.4
8297.4,4761.7,-9461.1,-1632.6,6798.2,575.6,9108.9,7558.3
8302.7,4761.1,-9458.1,-1633.4,6801.1,578.3,9111.1,7559.9
8308.4,4762.2,-9453.7,-1634.2,6807.4,581.6,9117.3,7562.2
8305.8,4764.2,-9455.1,-1632,6810.8,583.8,9120.6,7564.5
8305.5,4765.2,-9456.8,-1631.2,6809.5,582.5,9119.1,7564.8
8302.3,4765.2,-9458.2,-1633,6808.7,579.5,9117.4,7562
8301.2,4761.8,-9457.3,-1634.9,6806.4,577.8,9113.9,7559.3
8300.4,4759.5,-9455.3,-1636.8,6803.4,582,9112.2,7562.1
8302.2,4762.3,-9457.7,-1636.4,6803.5,584.7,9113.5,7565.2
8302.1,4764.8,-9459.1,-1633.8,6807.7,587.6,9117.7,7569.2
