EEG1,EEG2,EEG3,EEG4,EEG5,EEG6,EEG7,EEG8
0,0,0,0,0,0,0,0
-20392,-27449.5,93750,-24951.5,-17709.5,-14381.4,-19732.7,-15863.9
-20391.2,-27441.6,93750,-24947.2,-17710.9,-14381.3,-19734.4,-15866
-20384.1,-27437.1,93750,-24942.5,-17708.6,-14378.1,-19732,-15866.1
-20378.5,-27431.4,93750,-24936.3,-17705.8,-14374.5,-19729.1,-15865.3
-20378.2,-27427.2,93750,-24932.8,-17702.8,-14371,-19726,-15864.7
-20378.4,-27431.9,93750,-24938.7,-17704.6,-14374.5,-19728,-15867.7
-20381.7,-27432.3,93750,-24945.2,-17708.5,-14378,-19732.1,-15870.5
-20390.3,-27438,93750,-24946.3,-17713.2,-14382.9,-19736.7,-15872.1
-20395.5,-27441.1,93750,-24940.8,-17718.1,-14386.8,-19741.4,-15875.1
-20394.8,-27434.5,93750,-24940,-17719.9,-14386.2,-19743,-15882.7
-20394.1,-27426.6,93750,-24940.3,-17718.2,-14383.6,-19741.6,-15885.3
-20388.3,-27423,93750,-24937.9,-17714.4,-14378.6,-19737.6,-15882
-20382.4,-27417.6,93750,-24932.6,-17711.5,-14376.7,-19734.7,-15879.2
-20378.7,-27416.3,93750,-24930.6,-17711.5,-14378.3,-19734.8,-15877.9
-20384,-27419.9,93750,-24932.6,-17712.6,-14380.9,-19736,-15877.7
-20387.4,-27427.3,93750,-24939.1,-17714.9,-14384,-19738.6,-15878.3
-20391.8,-27437.1,93750,-24946.5,-17719.3,-14390.8,-19742.9,-15880.6
-20394.3,-27435.4,93750,-24948,-17718.2,-14390.1,-19741.4,-15882
-20391,-27429.6,93750,-24944.2,-17718,-14387.3,-19741.5,-15880.7
-20386.2,-27423.9,93750,-24937.6,-17716.9,-14385.9,-19740.1,-15879.5
-20381.1,-27422.1,93750,-24934.4,-17711,-14378.9,-19734.5,-15877.8
-20379.5,-27424.5,93750,-24933.5,-17706.1,-14372.7,-19729.6,-15875.8
-20384.5,-27425.7,93750,-24934.3,-17706.2,-14374.8,-19729.7,-15875.6
-20386.7,-27426.2,93750,-24935.6,-17709.1,-14379.7,-19732.7,-15876.3
-20392,-27431.1,93750,-24942.5,-17714.1,-14386.5,-19737.2,-15874.4
-20396.4,-27435.9,93750,-24948.6,-17716.3,-14391.4,-19739.7,-15861.1
-20393.6,-27436.9,93750,-24947.1,-17716.9,-14391,-19740.3,-15859.7
-20389.4,-27432,93750,-24945.9,-17714.8,-14387.4,-19738.1,-15862
-20383.6,-27428.5,93750,-24941.4,-17709.1,-14379.7,-19732.7,-15863.6
-20376.9,-27427.7,93750,-24935.2,-17705.2,-14373.3,-19728.7,-15867.2
-20375.5,-27429.1,93750,-24934.1,-17703.7,-14371.5,-19727.1,-15868.1
-20380.5,-27434,93750,-24936.4,-17703.1,-14371.2,-19726.4,-15867.9
-20385.4,-27437.9,93750,-24942.4,-17706.4,-14375.9,-19729.8,-15868.1
-20389.9,-27438.8,93750,-24950.3,-17708.3,-14379.3,-19731.5,-15863.6
-20391.7,-27437.9,93750,-24947.6,-17709.6,-14380.7,-19732.8,-15861
-20388.5,-27438.3,93750,-24941.1,-17709.1,-14378.9,-19732.5,-15861.6
-20381.9,-27433,93750,-24937.9,-17707,-14375.6,-19730.6,-15862.3
-20379.2,-27430,93750,-24935.3,-17703.9,-14372.1,-19727.2,-15864.2
-20377.2,-27427.7,93750,-24935.5,-17701.2,-14368.9,-19724.7,-15864.9
-20378.3,-27424.6,93750,-24935.4,-17701.8,-14370.8,-19725.1,-15865.1
-20380.4,-27419.6,93750,-24935.4,-17706.7,-14376.4,-19730,-15868.4
-20384.8,-27421.6,93750,-24935.9,-17713.2,-14381.8,-19736.5,-15878.9
-20391.3,-27433.3,93750,-24939.8,-17716.5,-14384.7,-19739.8,-15883.8
-20390.6,-27440.1,93750,-24940.5,-17716.3,-14384.5,-19739.5,-15882.8
-20385.9,-27437.5,93750,-24937,-17715.2,-14383.7,-19738.5,-15880.6
-20381.5,-27431.3,93750,-24930.8,-17711.5,-14380.2,-19734.9,-15877.6
-20379.9,-27428.4,93750,-24926.5,-17706.9,-14375.2,-19730.3,-15873.9
-20380.8,-27427,93750,-24925.2,-17703.4,-14372.1,-19726.7,-15870.9
-20385.6,-27429.1,93750,-24926.6,-17706.3,-14377.5,-19729.6,-15871.1
-20386.8,-27437.2,93750,-24936,-17706.7,-14379,-19730.2,-15871.2
-20391,-27442,93750,-24945.4,-17710,-14381.1,-19733.3,-15871.1
-20396.2,-27440.1,93750,-24945.8,-17713.9,-14384.5,-19736.9,-15872
-20393.1,-27440.8,93750,-24944.9,-17711.7,-14381,-19734.8,-15871.3
-20388.4,-27445.8,93750,-24945.8,-17707.2,-14375.3,-19730.6,-15870.4
-20382.7,-27443.1,93750,-24942.7,-17703,-14370.1,-19726.4,-15868.9
-20378.1,-27440.3,93750,-24941.4,-17699.6,-14366.6,-19723,-15866.7
-20378.5,-27443.8,93750,-24948.1,-17697.1,-14364.8,-19720.7,-15861.6
-20386.6,-27446.9,93750,-24947.8,-17698.5,-14369.5,-19722.1,-15850
-20392.7,-27452.5,93750,-24943.5,-17703.7,-14375.5,-19727,-15849.6
-20396,-27456.5,93750,-24946.2,-17708.4,-14380.2,-19731.6,-15853.9
-20396.1,-27455.4,93750,-24947.5,-17708.9,-14379.1,-19732.1,-15857.1
-20393.4,-27449.9,93750,-24943.8,-17707.2,-14375.7,-19730.7,-15861.7
-20390.6,-27445,93750,-24939.2,-17703.7,-14371.5,-19727.2,-15862.5
-20387.2,-27442.9,93750,-24933.2,-17698.3,-14366.4,-19721.7,-15860.3
-20383.6,-27443.4,93750,-24933.8,-17696.9,-14366.4,-19720.4,-15858.5
-20384.4,-27442.4,93750,-24938.6,-17695.4,-14365.4,-19718.6,-15852
-20385.4,-27444,93750,-24940.7,-17697.5,-14368.2,-19720.9,-15848.9
-20391.9,-27444.6,93750,-24939.3,-17703.2,-14374.2,-19726.5,-15852.1
-20397.2,-27449.3,93750,-24938.1,-17707.1,-14378,-19730.6,-15855.5
-20395,-27450,93750,-24942.7,-17707,-14377.4,-19730.5,-15859.5
-20390.3,-27443.3,93750,-24945.5,-17705.4,-14373.3,-19728.4,-15861.2
-20386.3,-27438,93750,-24940.2,-17700.3,-14367.6,-19723.7,-15859.9
-20381,-27435.5,93750,-24933.1,-17696.5,-14363.2,-19719.6,-15858.6
-20380.4,-27435.8,93750,-24929.5,-17697.2,-14363.8,-19720.7,-15865.7
-20383.2,-27438,93750,-24931.4,-17702.2,-14370.1,-19725.7,-15871.1
-20390.9,-27442.7,93750,-24934.9,-17706.6,-14375,-19730,-15871.7
-20396.4,-27448.9,93750,-24938.8,-17709.4,-14377.6,-19732.7,-15871.5
-20394,-27457.2,93750,-24941.1,-17710.1,-14377.8,-19733.3,-15870.7
-20390.5,-27456.4,93750,-24937.7,-17709.1,-14377.1,-19732.4,-15869.7
-20388.7,-27453.6,93750,-24936.4,-17704.6,-14372.1,-19727.8,-15867.4
-20384.8,-27449.2,93750,-24936.2,-17699.8,-14368.2,-19723,-15865.1
-20379.7,-27446.4,93750,-24936.8,-17696.5,-14365.9,-19720,-15863.2
-20383.7,-27445.2,93750,-24939.2,-17697.4,-14366.5,-19720.7,-15861.6
-20392.4,-27444.1,93750,-24943.7,-17700.6,-14370.8,-19723.9,-15862.7
-20395.6,-27451.2,93750,-24945.5,-17704.4,-14374.1,-19727.4,-15864.6
-20398.2,-27455.9,93750,-24945.8,-17709.1,-14378,-19732.2,-15867.7
-20398.1,-27453.3,93750,-24947.5,-17708.7,-14377,-19732,-15868.9
-20397,-27444.8,93750,-24942.8,-17707.9,-14375.2,-19731.1,-15868
-20393.4,-27444.9,93750,-24938.1,-17702.7,-14368.2,-19725.9,-15862
-20392.5,-27444.1,93750,-24936.8,-17698.4,-14365.3,-19721.7,-15847.9
-20390.6,-27442.4,93750,-24936.1,-17697.6,-14364.7,-19720.8,-15844.8
-20389.5,-27445.7,93750,-24937.3,-17699.3,-14366.2,-19722.6,-15847.6
-20391,-27450.7,93750,-24938.9,-17703.5,-14370.2,-19727,-15852.1
-20390.8,-27459.6,93750,-24946.5,-17707,-14373.1,-19730.6,-15859.4
-20390.9,-27457,93750,-24951.2,-17709.2,-14374.8,-19732.4,-15862.8
-20390.2,-27452.5,93750,-24945.5,-17709.4,-14374.3,-19732.6,-15863.2
-20390.9,-27452.1,93750,-24941,-17704.8,-14369.3,-19728.3,-15860.8
-20383,-27448,93750,-24940.8,-17695.2,-14361.3,-19718.9,-15851.8
-20374.3,-27440.7,93750,-24939.4,-17692.1,-14359.5,-19715.6,-15847
-20374.9,-27443.6,93750,-24937,-17692.9,-14360.6,-19716.2,-15848.1
-20384.2,-27442.3,93750,-24936.5,-17696,-14364,-19719,-15850.3
-20393.5,-27447.8,93750,-24940.4,-17702.2,-14371.3,-19725.3,-15856.5
-20395.9,-27453,93750,-24944.9,-17707.9,-14376.2,-19731.2,-15861.5
-20396.2,-27451.2,93750,-24942.6,-17708.6,-14375.3,-19731.9,-15863
-20394.5,-27448.1,93750,-24937.9,-17704.7,-14369.1,-19728.1,-15862.8
-20388.2,-27446.5,93750,-24933.4,-17699.3,-14361.8,-19722.6,-15867.8
-20385.6,-27444.7,93750,-24931.7,-17694.9,-14357.7,-19718.1,-15868.9
-20385.8,-27449.8,93750,-24936.9,-17691.3,-14355.8,-19714.7,-15864.8
-20386.5,-27451.4,93750,-24940.2,-17694.1,-14360.9,-19717.4,-15863.1
-20390.6,-27452,93750,-24943.5,-17699.5,-14367.2,-19722.8,-15863.4
-20395.4,-27458.5,93750,-24949.4,-17704.6,-14372.1,-19727.6,-15864.8
-20399.1,-27461.9,93750,-24951.2,-17705.6,-14373,-19728.8,-15865.6
-20397.2,-27462.8,93750,-24951.5,-17704,-14372.7,-19727,-15865.5
-20390.7,-27457.5,93750,-24949.2,-17699.9,-14369.8,-19723.1,-15864.2
-20387.7,-27444.3,93750,-24942.3,-17696.8,-14365,-19720,-15861.6
-20383.8,-27438.7,93750,-24938.6,-17694.7,-14363.2,-19717.9,-15860.2
-20379.9,-27449.3,93750,-24942.4,-17693,-14362.5,-19716.4,-15860.2
-20386.6,-27454.2,93750,-24944.2,-17694.9,-14364.3,-19718.3,-15861.9
-20394.7,-27464.8,93750,-24945.5,-17699.7,-14370.1,-19722.9,-15864.2
-20396.9,-27471.7,93750,-24944.9,-17704.5,-14375.4,-19727.7,-15866.2
-20395.1,-27469,93750,-24949.4,-17704.9,-14375.3,-19728.3,-15864.1
-20395.7,-27462.7,93750,-24951.6,-17702,-14374,-19725.4,-15851.8
-20391.7,-27449.5,93750,-24945.3,-17698.2,-14369.1,-19721.5,-15848.6
-20387.4,-27443,93750,-24936.5,-17695.2,-14364.9,-19718.6,-15849.3
-20379.9,-27441.9,93750,-24933.8,-17694.9,-14364.1,-19718.3,-15851.9
-20377,-27447.5,93750,-24942.8,-17694.9,-14363.6,-19718.5,-15857.2
-20384.2,-27448.8,93750,-24946.5,-17700.1,-14369.5,-19723.6,-15861.3
-20389.6,-27460.3,93750,-24949.3,-17702.9,-14372.5,-19726.2,-15863.3
-20396.3,-27465.5,93750,-24949.8,-17705.1,-14374.7,-19728.4,-15863.9
-20392.6,-27461.3,93750,-24945.4,-17701.7,-14370.3,-19725,-15857.2
-20388.9,-27453.9,93750,-24938.3,-17697.7,-14365.6,-19720.9,-15851.4
-20384.4,-27443.6,93750,-24934.6,-17693.8,-14360.7,-19717.1,-15850.1
-20380.6,-27436.6,93750,-24936.5,-17689.3,-14355.8,-19712.4,-15848.9
-20383,-27436.1,93750,-24937.8,-17691.8,-14360.4,-19714.8,-15852.6
-20383.4,-27444.2,93750,-24941.7,-17695.4,-14363.6,-19718.6,-15856.2
-20387.1,-27450.6,93750,-24945.7,-17701.1,-14369.7,-19724.5,-15858.6
-20391.1,-27451.4,93750,-24945.8,-17706.2,-14374.3,-19729.2,-15862.2
-20392.3,-27452.1,93750,-24944,-17706.5,-14372.4,-19729.5,-15870.1
-20391.2,-27450.7,93750,-24943,-17705,-14370.7,-19727.9,-15873.5
-20386.3,-27444.2,93750,-24938.3,-17701.7,-14368.2,-19724.8,-15870.7
-20382.5,-27438.6,93750,-24935.1,-17696.2,-14363.9,-19719.7,-15867
-20381.9,-27442.1,93750,-24939.3,-17692.8,-14361,-19716,-15863.4
-20383.6,-27448.4,93750,-24940.3,-17693.9,-14363.5,-19717.2,-15862.6
-20387.1,-27451.6,93750,-24941.6,-17698.5,-14369.4,-19721.8,-15864
-20393.8,-27456.3,93750,-24952.6,-17703.3,-14375.9,-19726.4,-15865.8
-20394.6,-27458.7,93750,-24962.2,-17703.5,-14376,-19726.5,-15867
-20393.9,-27456.7,93750,-24957.4,-17702.1,-14372.1,-19725.2,-15865.4
-20390.6,-27451.9,93750,-24948.1,-17700,-14369.9,-19723.1,-15864.6
-20384.3,-27444.8,93750,-24938.8,-17697.3,-14366.8,-19720.3,-15863.9
-20377.6,-27445,93750,-24931.1,-17695.1,-14362.9,-19718.3,-15863.3
-20378.1,-27449.6,93750,-24934.8,-17696.1,-14364.9,-19719.8,-15863.9
-20386,-27448,93750,-24939.3,-17698.8,-14368.4,-19722.3,-15864.9
-20396.3,-27448.4,93750,-24942.9,-17703.7,-14374.5,-19726.8,-15864.3
-20400.2,-27456.4,93750,-24947.2,-17707.1,-14379,-19730,-15854.5
-20400,-27455.2,93750,-24947.1,-17706.8,-14377.2,-19729.7,-15852.3
-20396,-27448.7,93750,-24943.6,-17703.5,-14372.6,-19726.7,-15853.5
-20392.9,-27442.1,93750,-24939.8,-17698.7,-14367.3,-19722.2,-15855
-20385.6,-27435.6,93750,-24936,-17695.7,-14363.4,-19719.1,-15858.3
-20383.5,-27432.8,93750,-24935.3,-17696.8,-14364.8,-19720.3,-15860.2
-20383.2,-27434.9,93750,-24939.5,-17698.5,-14367.5,-19722,-15861.3
-20391.3,-27439,93750,-24944.2,-17701.5,-14372.5,-19724.6,-15862.1
-20398.5,-27440.2,93750,-24948.3,-17702.8,-14374.9,-19726,-15857.2
-20394.2,-27442.9,93750,-24950.9,-17702.4,-14374.3,-19725.6,-15853.9
-20386.5,-27445.3,93750,-24952,-17700.5,-14371.5,-19723.8,-15854.3
-20381.3,-27445.1,93750,-24948.4,-17697.2,-14367.4,-19720.6,-15855.1
-20380,-27441.5,93750,-24938.4,-17695.4,-14365.3,-19718.6,-15857.5
-20380.5,-27435.5,93750,-24931.6,-17693.6,-14362.7,-19717,-15858.4
-20380.4,-27437.3,93750,-24937.1,-17693.5,-14363.3,-19716.9,-15859
-20382.2,-27439.7,93750,-24943.6,-17694.7,-14364.3,-19718,-15860.2
-20385.5,-27441.8,93750,-24946.1,-17700.5,-14369.8,-19723.7,-15869.8
-20386.9,-27448,93750,-24951,-17705.1,-14374.8,-19728.1,-15876.5
-20391.8,-27443.9,93750,-24952.2,-17706.9,-14376.2,-19729.9,-15876.7
-20391.2,-27437.9,93750,-24948.7,-17704.4,-14372.2,-19727.7,-15874.1
-20387.8,-27433.3,93750,-24943.8,-17700.9,-14367.7,-19723.8,-15871
-20383.6,-27431.6,93750,-24942.2,-17696.4,-14363.5,-19719.5,-15867.4
-20382.3,-27430.3,93750,-24940,-17695.1,-14363.4,-19718.5,-15865.6
-20384.9,-27435.5,93750,-24943.3,-17696.7,-14367.9,-19719.7,-15866
-20390,-27441.4,93750,-24946.7,-17698.7,-14370.8,-19721.9,-15866.9
-20391.9,-27445.6,93750,-24954.9,-17703,-14373.1,-19726.2,-15867.1
-20393.1,-27443.2,93750,-24961.4,-17707.2,-14375.8,-19730,-15868.4
-20392,-27437.5,93750,-24954.8,-17707.2,-14374.3,-19730.1,-15868.8
-20390.4,-27432.9,93750,-24946.5,-17705.6,-14371.7,-19728.9,-15869.7
-20388.7,-27433,93750,-24942.5,-17700.4,-14366.7,-19723.6,-15868.4
-20386.4,-27433.2,93750,-24939.9,-17695.2,-14362.2,-19718.3,-15866.1
-20389.9,-27437.5,93750,-24941.3,-17693.6,-14363.6,-19716.8,-15861.6
-20392.4,-27440.5,93750,-24944.9,-17695.9,-14369.5,-19719.4,-15850.2
-20395.5,-27445.1,93750,-24947,-17700.6,-14374.8,-19724,-15850.3
-20399.9,-27445.5,93750,-24949.7,-17703.4,-14378.1,-19726.6,-15855
-20400.1,-27441.9,93750,-24952.1,-17703.9,-14378,-19727,-15858.8
-20388.9,-27442.6,93750,-24960.9,-17699.7,-14372.9,-19722.7,-15863.1
-20385.3,-27442.5,93750,-24957.5,-17694,-14368.7,-19716.9,-15863.8
-20384.3,-27439.2,93750,-24947.5,-17689.8,-14366.3,-19712.9,-15862.9
-20386.1,-27437.8,93750,-24946.5,-17688.1,-14366.4,-19711.1,-15861.3
-20385.9,-27435.3,93750,-24952.2,-17686.2,-14366.1,-19709.5,-15855.3
-20386.2,-27435,93750,-24955.6,-17686.8,-14367.9,-19710.4,-15852.5
-20387.8,-27438.8,93750,-24958.1,-17691.7,-14372.9,-19715.1,-15855.1
-20388,-27448.3,93750,-24960.7,-17694.8,-14375.5,-19718.1,-15858.1
-20387.7,-27449.7,93750,-24957,-17696.3,-14375.7,-19719.6,-15861.8
-20387.2,-27444.2,93750,-24953,-17695,-14373.1,-19718.2,-15863.3
-20386.5,-27438.9,93750,-24947.9,-17690.5,-14367.5,-19713.7,-15861.9
-20380.6,-27437.5,93750,-24945.9,-17685.4,-14361.3,-19708.8,-15860.6
-20380.9,-27437.4,93750,-24944.9,-17684.8,-14359.6,-19708.5,-15866.9
-20386.5,-27439.1,93750,-24946.2,-17688.6,-14363.9,-19712.3,-15871.3
-20391.3,-27445.3,93750,-24948.8,-17694.1,-14370,-19717.7,-15871.7
-20394,-27457.8,93750,-24954.3,-17696.9,-14372.9,-19720.5,-15871.1
-20398.4,-27462.6,93750,-24955.6,-17697.1,-14370.8,-19720.6,-15869.7
-20403.3,-27457.3,93750,-24953.8,-17694.9,-14366.3,-19718,-15866.9
-20402.2,-27445.2,93750,-24950.8,-17693.8,-14365.1,-19717,-15865
-20399.2,-27435.6,93750,-24948,-17692.5,-14365,-19715.8,-15863.8
-20397.3,-27429.8,93750,-24947.2,-17689.6,-14361.9,-19712.8,-15862.4
-20392.9,-27431.9,93750,-24945.9,-17691.8,-14363.4,-19714.8,-15861.6
-20399.5,-27431.7,93750,-24949.3,-17695.4,-14367.5,-19718.5,-15862.7
-20408.1,-27435.8,93750,-24954.4,-17697.9,-14369.3,-19721,-15864.5
-20410.7,-27446.1,93750,-24959.4,-17699,-14369.4,-19722.3,-15866.2
-20410,-27443.9,93750,-24956.8,-17701.3,-14372.4,-19724.7,-15867.6
-20403.9,-27439.7,93750,-24952.9,-17698.5,-14370.4,-19721.9,-15866.9
-20396.5,-27439.2,93750,-24952.5,-17692.9,-14366.5,-19716.4,-15861.9
-20394,-27438.1,93750,-24949.9,-17688,-14364.5,-19711.5,-15848.8
-20393.8,-27436.1,93750,-24947.3,-17686.7,-14364.5,-19710.2,-15846.1
-20393.7,-27437.5,93750,-24951.3,-17688.9,-14367.2,-19712.3,-15849.2
-20397.2,-27435.8,93750,-24954.5,-17693.7,-14373.1,-19717.1,-15855
-20399.2,-27437.4,93750,-24957.3,-17698.9,-14378.8,-19722,-15864.2
-20396.5,-27443.2,93750,-24961.3,-17699.1,-14379.2,-19722.6,-15868
-20394.6,-27442.1,93750,-24959.3,-17696.7,-14376.1,-19720.1,-15868.1
-20397.9,-27437.1,93750,-24956.1,-17692,-14371.6,-19715.4,-15866.4
-20390.1,-27432.7,93750,-24954.5,-17684.2,-14364.6,-19707.6,-15857.9
-20384.7,-27431.9,93750,-24950,-17679.3,-14360,-19702.5,-15852.1
-20387.6,-27428.2,93750,-24949.1,-17680.7,-14361.2,-19703.8,-15852.8
-20389.2,-27433.6,93750,-24955.1,-17683.2,-14363.2,-19706.5,-15854.5
-20394.9,-27441.3,93750,-24956.7,-17691.5,-14372.1,-19714.8,-15860.3
-20398.2,-27444.9,93750,-24955.8,-17697.8,-14376.8,-19720.9,-15865.4
-20395.8,-27442.7,93750,-24957.5,-17697.7,-14375.1,-19721.1,-15866
-20394,-27436.1,93750,-24960.3,-17695,-14370.1,-19718.1,-15865.7
-20388.7,-27430.5,93750,-24952.8,-17691.1,-14363.7,-19714.3,-15870.7
-20385.5,-27431.5,93750,-24944.8,-17688.3,-14360.9,-19711.9,-15871.7
-20387.1,-27433.8,93750,-24942.8,-17686.6,-14360.7,-19709.9,-15869.1
-20395.3,-27433.1,93750,-24947.6,-17688.4,-14363,-19711.5,-15867.4
-20404.5,-27431.3,93750,-24952.9,-17692.5,-14367.7,-19715.8,-15867.4
-20409.8,-27436.4,93750,-24961.3,-17696.4,-14371.2,-19719.8,-15867.7
-20412.3,-27444.1,93750,-24964.9,-17697.1,-14371.2,-19720.7,-15867.3
-20415.8,-27443.6,93750,-24959.1,-17696,-14370.9,-19719.3,-15866.5
-20413.7,-27439.4,93750,-24953.3,-17690.2,-14365.5,-19713.7,-15864.1
-20407.9,-27434.8,93750,-24947.2,-17685.4,-14359.5,-19709,-15860.2
-20407.8,-27434.8,93750,-24944.3,-17682,-14357.3,-19705.4,-15858.3
-20404.7,-27439.9,93750,-24952.9,-17679.6,-14355.5,-19702.8,-15856.8
-20407.4,-27443.1,93750,-24958,-17682.8,-14359.2,-19705.9,-15858.5
-20420.3,-27447.8,93750,-24960,-17687.9,-14366.5,-19711.2,-15861.6
-20429.4,-27454,93750,-24962.5,-17689.1,-14368.8,-19712.6,-15862.6
-20425.1,-27454.4,93750,-24964.2,-17688.6,-14369.5,-19712,-15859.5
-20415.6,-27445.2,93750,-24961.2,-17689.4,-14373.3,-19712.8,-15848.9
-20404.1,-27432,93750,-24953.4,-17690.3,-14373.6,-19713.5,-15847.8
-20395.1,-27427.3,93750,-24947.8,-17687.9,-14369.6,-19711.1,-15849.3
-20388.3,-27424.6,93750,-24943.9,-17688.2,-14368.7,-19711.3,-15852.4
-20390.1,-27428,93750,-24943.8,-17689.4,-14369.3,-19712.6,-15858.7
-20397.6,-27439.5,93750,-24945.9,-17691.6,-14371,-19715.1,-15861.7
-20405.1,-27448,93750,-24948.8,-17695,-14374.1,-19718.4,-15863.1
-20407.4,-27445.5,93750,-24957,-17698.9,-14377.4,-19722.2,-15864.2
-20401,-27433.1,93750,-24960.4,-17697,-14373.9,-19720.1,-15857.4
-20390.4,-27422.2,93750,-24954.1,-17694,-14370.3,-19717.3,-15852.4
-20382.7,-27419.9,93750,-24948.9,-17690,-14365.3,-19713.2,-15851.8
-20377.2,-27420.1,93750,-24946,-17686.1,-14360.3,-19709.1,-15851.5
-20380.3,-27426.9,93750,-24948,-17686.9,-14362.9,-19710.2,-15854.8
-20385.2,-27432.3,93750,-24951.4,-17689.2,-14366,-19712.8,-15857.6
-20388.7,-27435.6,93750,-24954.3,-17695.5,-14374.1,-19718.9,-15860.3
-20387,-27433,93750,-24955.2,-17701.5,-14380.2,-19724.9,-15864.8
-20387.1,-27427.3,93750,-24952.5,-17703.4,-14380.4,-19726.9,-15874.3
-20389.7,-27426.1,93750,-24951.7,-17700.5,-14376.9,-19724,-15877.1
-20385.1,-27426.7,93750,-24954.2,-17695.2,-14371,-19718.5,-15873.5
-20381,-27423.9,93750,-24946.5,-17689.3,-14366.3,-19712.9,-15869.6
-20379.3,-27432.1,93750,-24942.8,-17686,-14364.9,-19709.9,-15866.5
-20381.4,-27436.2,93750,-24948.1,-17687,-14368.3,-19710.7,-15866.3
-20388.4,-27437.1,93750,-24952.5,-17690.6,-14374.1,-19714.1,-15867.9
-20397.7,-27439.8,93750,-24959.7,-17695.4,-14380.4,-19718.7,-15870.2
-20401.2,-27440.8,93750,-24964.8,-17695.5,-14381.1,-19718.7,-15871.2
-20398.8,-27438.2,93750,-24963.3,-17693.5,-14376.9,-19716.8,-15869.8
-20394.6,-27434.5,93750,-24960.2,-17689.8,-14373.5,-19713.3,-15868.6
-20387.5,-27431.8,93750,-24956.4,-17684.8,-14368.2,-19708.2,-15866.2
-20383.2,-27426.5,93750,-24956,-17681.2,-14363.8,-19704.6,-15865.1
-20385,-27429.8,93750,-24960.3,-17681,-14365.9,-19704.6,-15865.6
-20392.1,-27437.4,93750,-24956.1,-17683.2,-14369.9,-19706.8,-15866.1
-20396.6,-27446.1,93750,-24959.7,-17688.3,-14375.9,-19711.8,-15864.7
-20400.5,-27445.1,93750,-24969.8,-17692,-14381.2,-19715.5,-15855
-20404,-27437.7,93750,-24964.5,-17694.3,-14382.4,-19717.8,-15854.6
-20398.7,-27435.7,93750,-24957.4,-17692.7,-14377.9,-19716,-15856.6
-20389.2,-27433.7,93750,-24952.7,-17689,-14372.5,-19712.2,-15857.7
-20384.2,-27429.1,93750,-24946,-17685.2,-14366.7,-19708.3,-15860.8
-20383.4,-27430.1,93750,-24946.7,-17682.1,-14363.9,-19705.4,-15861.6
-20383,-27431.7,93750,-24949.5,-17685.1,-14368.5,-19708.6,-15863
-20391.2,-27433,93750,-24953.3,-17690.1,-14374.2,-19713.8,-15864.7
-20395.8,-27433.4,93750,-24959.3,-17692.2,-14376.1,-19716,-15860.7
-20395,-27437.6,93750,-24961.9,-17692.8,-14375.3,-19716.3,-15857.7
-20393.8,-27436.2,93750,-24959.5,-17691.2,-14372.6,-19714.7,-15857.9
-20386.3,-27434.9,93750,-24954.1,-17688.7,-14370.1,-19712,-15858.9
-20380.7,-27433.2,93750,-24950.8,-17684.7,-14366.7,-19707.7,-15860.6
-20376.3,-27431.3,93750,-24950.6,-17681.8,-14363.5,-19705.3,-15861.4
-20377.5,-27432.5,93750,-24954.4,-17681.2,-14363.4,-19705.1,-15860.9
-20382.9,-27432,93750,-24956.6,-17682.7,-14366.3,-19706.3,-15862.7
-20388.5,-27431.5,93750,-24958.1,-17688.6,-14373.1,-19712.2,-15872.4
-20390.7,-27441.5,93750,-24965.9,-17692,-14376.8,-19715.1,-15877.3
-20390.8,-27444.5,93750,-24967,-17692,-14377.3,-19715.5,-15876.6
-20384.9,-27445,93750,-24966.9,-17688,-14373.8,-19712,-15873.8
-20384.2,-27442.9,93750,-24964.3,-17682.7,-14369.5,-19706.4,-15870.3
-20382.4,-27438.7,93750,-24961.2,-17677.9,-14366.1,-19701.2,-15867.1
-20381.9,-27433.7,93750,-24967,-17675,-14364.5,-19698.4,-15864.6
-20382.9,-27436.6,93750,-24972,-17675.6,-14368,-19699.2,-15864.6
-20385.6,-27444.3,93750,-24974.4,-17676.8,-14372.5,-19700.1,-15865.7
-20392.7,-27448.7,93750,-24971.6,-17682.3,-14378.8,-19705.9,-15867.4
-20395.8,-27447.6,93750,-24966,-17688.2,-14384.3,-19711.7,-15869.9
-20395,-27444.9,93750,-24963.4,-17687.7,-14381.1,-19711.3,-15870.3
-20392.5,-27440.6,93750,-24961.2,-17684.3,-14375.5,-19707.9,-15869.8
-20387.8,-27432.4,93750,-24954.5,-17682.6,-14375.6,-19706.3,-15869.5
-20382,-27429.1,93750,-24953.8,-17680.2,-14373,-19703.6,-15867.9
-20385.8,-27430,93750,-24956.8,-17678.9,-14371.7,-19702.1,-15863.3
-20395.7,-27432.6,93750,-24957.7,-17680,-14374,-19703.5,-15851.8
-20401.6,-27436.5,93750,-24959.6,-17685,-14376.9,-19708.4,-15850.8
-20403.4,-27440.3,93750,-24963.1,-17690,-14380.5,-19713.6,-15854.5
-20403.2,-27435.4,93750,-24963,-17691.7,-14381,-19715.3,-15858.7
-20399.4,-27434,93750,-24963.2,-17688.9,-14375.8,-19712.4,-15863.6
-20392.6,-27435.9,93750,-24964.6,-17684,-14368.1,-19707.5,-15863
-20392.9,-27436.2,93750,-24959,-17677.6,-14361.6,-19701,-15859.6
-20397,-27435.4,93750,-24954.6,-17674.6,-14361.2,-19698.1,-15857.5
-20398.7,-27431.9,93750,-24954.9,-17673.9,-14361.4,-19697,-15851.7
-20400.3,-27431.2,93750,-24957.8,-17675.4,-14363.2,-19698.9,-15848.4
-20406.5,-27432.9,93750,-24958.3,-17680.8,-14368.6,-19704.4,-15850.8
-20408.6,-27444,93750,-24964,-17682.7,-14369.8,-19706,-15853.2
-20405.1,-27447.5,93750,-24965.1,-17681.8,-14369.3,-19705.4,-15856.7
-20400.9,-27440.1,93750,-24960.5,-17682.4,-14369.4,-19706.3,-15859.6
-20393.4,-27437,93750,-24958,-17678.1,-14364.3,-19701.9,-15858.9
-20388,-27431.5,93750,-24955.4,-17673.8,-14360.6,-19697.4,-15858.6
-20386.7,-27427.9,93750,-24953.3,-17674.1,-14360.8,-19697.5,-15866
-20391.7,-27435.1,93750,-24952.1,-17675.5,-14363.7,-19699.5,-15870.2
-20395.8,-27448.5,93750,-24952.5,-17679.6,-14369.4,-19703.6,-15870.5
-20396.8,-27451.9,93750,-24957.9,-17685.1,-14376.1,-19708.7,-15871.9
-20395.5,-27448.7,93750,-24963.2,-17688,-14380.1,-19711.4,-15873.1
-20391.6,-27444.8,93750,-24968.2,-17684.7,-14376.3,-19708.4,-15872.1
-20385.1,-27438.8,93750,-24969,-17679.6,-14371.2,-19703.4,-15870.2
-20382.9,-27438.8,93750,-24964.7,-17674.7,-14367.9,-19698.3,-15868.2
-20382.8,-27437.4,93750,-24959.5,-17672.1,-14366.5,-19695.6,-15866.8
-20378.5,-27437.8,93750,-24958.2,-17674.9,-14368.6,-19698.2,-15866.5
-20388.9,-27434.6,93750,-24957.5,-17679,-14372.6,-19702.6,-15867.9
-20393,-27439.5,93750,-24964.1,-17682.8,-14375.6,-19706.5,-15869.5
-20393.8,-27443.9,93750,-24971.4,-17686.6,-14378.5,-19710.1,-15871.9
-20392.6,-27445.4,93750,-24967.5,-17687.2,-14378.6,-19710.7,-15872.6
-20389.2,-27446.4,93750,-24959.9,-17685,-14375.4,-19708.7,-15871.6
-20386.2,-27441.2,93750,-24955.3,-17680.8,-14371.6,-19704.6,-15866.5
-20385,-27433.7,93750,-24953.1,-17678.3,-14370.3,-19701.9,-15853.3
-20383.9,-27426.6,93750,-24951.1,-17678.2,-14369.8,-19701.5,-15850.5
-20387.8,-27425.4,93750,-24951.9,-17680.2,-14371.5,-19703.8,-15853.8
-20389.7,-27431.2,93750,-24956,-17683.9,-14375.1,-19707.5,-15858.5
-20391.5,-27437.5,93750,-24958.9,-17688.9,-14378.8,-19712.5,-15866.7
-20396.6,-27436.9,93750,-24959.5,-17691.2,-14379.7,-19714.6,-15870.5
-20391,-27436.1,93750,-24960.3,-17689.2,-14376.9,-19712.5,-15870.6
-20383.5,-27439.6,93750,-24959.4,-17683.9,-14371,-19707.2,-15867.6
-20378.3,-27435.5,93750,-24953.9,-17676.1,-14363.3,-19699.5,-15858.8
-20378.9,-27431.2,93750,-24948.7,-17670.9,-14359.1,-19694.3,-15852.7
-20379,-27437.4,93750,-24954.7,-17668.8,-14358.2,-19692.5,-15851.9
-20382.3,-27437.9,93750,-24959.1,-17671.3,-14362.6,-19694.9,-15854
-20394,-27438.2,93750,-24962,-17679,-14372.3,-19702.5,-15860.7
-20397.4,-27438.1,93750,-24963.6,-17684.8,-14376.9,-19708.2,-15865.9
-20391.6,-27441.7,93750,-24967.8,-17683.2,-14373.5,-19706.6,-15866
-20384.6,-27439.5,93750,-24972.9,-17678.2,-14368.2,-19701.7,-15865.5
-20380.1,-27431.3,93750,-24961.8,-17675.4,-14364.2,-19698.7,-15871.6
-20381.9,-27428.5,93750,-24953.2,-17672.2,-14361.6,-19696.1,-15873.8
-20384,-27426.3,93750,-24949.1,-17672.4,-14363.7,-19696.2,-15871.8
-20386.1,-27431.4,93750,-24951,-17674.3,-14367,-19698.1,-15870.7
-20388.9,-27443.9,93750,-24955.4,-17676.5,-14371,-19700.3,-15870.6
-20394.5,-27455,93750,-24960.2,-17679.6,-14374.8,-19703.1,-15871
-20397.9,-27452.4,93750,-24965.4,-17681.2,-14376,-19704.9,-15871.4
-20396.9,-27448,93750,-24967.7,-17680.5,-14375.6,-19704.3,-15871.4
-20392.3,-27440.3,93750,-24963.7,-17678,-14373.1,-19701.8,-15871.6
-20387.2,-27432.2,93750,-24957.9,-17674.9,-14367.5,-19698.7,-15869.2
-20387.9,-27430.7,93750,-24955.1,-17670.5,-14364.8,-19694.2,-15866.7
-20389.5,-27436.2,93750,-24956.5,-17668.5,-14363.3,-19692.1,-15865.9
-20391.6,-27437.4,93750,-24956.6,-17673.1,-14368,-19696.9,-15868.3
-20397.4,-27442.4,93750,-24961.1,-17678.5,-14374.8,-19702.2,-15870.6
-20398.8,-27453.2,93750,-24969.7,-17680.4,-14376.4,-19704,-15871.2
-20396.7,-27453.5,93750,-24969,-17680.6,-14376,-19704.2,-15868.7
-20395.5,-27452,93750,-24966.1,-17678.7,-14375,-19702.2,-15856.2
-20390.8,-27447.6,93750,-24962.2,-17673.8,-14368.3,-19697.5,-15851.2
-20385.2,-27441.3,93750,-24958.5,-17669,-14361.9,-19692.8,-15850.9
-20381.1,-27439.8,93750,-24958.2,-17667.5,-14360.6,-19691.3,-15852.6
-20380.2,-27444.6,93750,-24958.9,-17670.8,-14364.8,-19694.7,-15859.3
-20385.8,-27444.4,93750,-24961.4,-17676.8,-14371.4,-19700.6,-15864.4
-20392.9,-27442.4,93750,-24965,-17682.7,-14378.2,-19706.5,-15867.9
-20395.5,-27445.8,93750,-24970.5,-17684.9,-14380.3,-19708.7,-15869.2
-20389.3,-27444,93750,-24973.3,-17678.6,-14374.7,-19702.4,-15862.4
-20382,-27439.6,93750,-24966.5,-17673.1,-14369.9,-19697,-15857
-20374.3,-27438.6,93750,-24960.6,-17668.7,-14364.9,-19692.5,-15856.1
-20372.5,-27433.8,93750,-24954.5,-17665.3,-14361.3,-19689,-15856.2
-20378.3,-27434.1,93750,-24954.1,-17667.1,-14364.6,-19690.9,-15859.8
-20382,-27437.4,93750,-24959.7,-17672,-14368.8,-19695.8,-15863.8
-20385.7,-27443.6,93750,-24970.5,-17675.6,-14371.2,-19699.7,-15865.9
-20388.2,-27448.1,93750,-24971.6,-17679,-14374.3,-19702.6,-15868.4
-20385.1,-27446.8,93750,-24966.4,-17680.9,-14374.8,-19704.4,-15876.7
-20384.3,-27448.6,93750,-24966.4,-17678.3,-14371.7,-19701.8,-15879.4
-20385.7,-27442.7,93750,-24961.7,-17675,-14368.4,-19698.6,-15876.1
-20380.9,-27435.7,93750,-24957.7,-17669.8,-14364,-19693.4,-15871.5
-20382.4,-27429.9,93750,-24956.8,-17668.2,-14364.4,-19691.9,-15868.8
-20379.7,-27435.8,93750,-24964.1,-17670.1,-14367.7,-19693.9,-15868.2
-20384,-27441.1,93750,-24966.6,-17673.7,-14372.1,-19697.4,-15869.1
-20389.5,-27451.8,93750,-24973,-17677.5,-14377.4,-19701.2,-15870.3
-20392.7,-27453,93750,-24977.5,-17678.8,-14379,-19702.4,-15871.1
-20391.4,-27448,93750,-24978.6,-17677.4,-14374.5,-19701,-15869.6
-20390.3,-27449.5,93750,-24972.2,-17674.1,-14369.3,-19698.1,-15867.4
-20385.5,-27448.1,93750,-24961.5,-17669,-14362.8,-19693,-15864.6
-20381.5,-27444.5,93750,-24952.5,-17668.2,-14362.8,-19691.9,-15864.6
-20383.4,-27441.5,93750,-24952.2,-17671.6,-14367.9,-19695.4,-15865.7
-20383.5,-27444.4,93750,-24961.3,-17673.5,-14370.7,-19697.2,-15866.5
-20387.5,-27448.2,93750,-24967,-17679.1,-14377.6,-19702.9,-15866.1
-20392.8,-27448.8,93750,-24967.8,-17683.8,-14382.8,-19707.8,-15856.8
-20393.1,-27446.3,93750,-24969.2,-17684.5,-14382.7,-19708.2,-15855.7
-20386.9,-27444.2,93750,-24969.1,-17681,-14378.6,-19704.9,-15857.8
-20383.3,-27436.9,93750,-24962.3,-17676.4,-14373.1,-19700.2,-15859.5
-20385.4,-27429.5,93750,-24954.7,-17672.4,-14367.8,-19696,-15862.7
-20386.6,-27429.9,93750,-24953.5,-17669.5,-14365.1,-19693.1,-15863.4
-20387.5,-27431.1,93750,-24955.4,-17671.7,-14368.9,-19695.1,-15864.4
-20388.4,-27437,93750,-24962,-17676.5,-14375.7,-19699.9,-15866.4
-20392,-27446.9,93750,-24968,-17674.6,-14374.6,-19698.1,-15861.4
-20395.2,-27451.4,93750,-24968,-17673.6,-14373.7,-19697.1,-15858
-20390.8,-27449.7,93750,-24968.3,-17671.9,-14371,-19695.6,-15858
-20383.6,-27443.6,93750,-24965.8,-17669.6,-14367.8,-19693.7,-15858
-20382.3,-27436.7,93750,-24962.2,-17667.1,-14365.2,-19690.9,-15859.8
-20382.6,-27430.2,93750,-24959.5,-17665.5,-14363.4,-19689.2,-15861
-20381.2,-27430.1,93750,-24959.5,-17666.4,-14365.1,-19690.2,-15861.4
-20380.7,-27433.6,93750,-24960.5,-17669.3,-14369,-19693,-15863.8
-20384,-27437.1,93750,-24960.9,-17675.6,-14374.3,-19699.3,-15874.1
-20390,-27438.7,93750,-24961.3,-17682.4,-14379.6,-19706,-15880.2
-20390.4,-27437.9,93750,-24966.9,-17682.6,-14378.6,-19706.3,-15878.8
-20388.9,-27439.5,93750,-24974.2,-17676.9,-14372.8,-19700.7,-15875.3
-20384.4,-27436.6,93750,-24966.8,-17674.5,-14371.1,-19698,-15872.5
-20379.2,-27433,93750,-24959.9,-17671.2,-14368.3,-19694.8,-15869.8
-20377.1,-27434,93750,-24961,-17667.4,-14365.8,-19691.1,-15867.1
-20380.3,-27445.8,93750,-24959.7,-17668.9,-14370.3,-19692.6,-15867.4
-20385.8,-27449.8,93750,-24956.9,-17672.4,-14374.4,-19696,-15869.1
-20391,-27449.6,93750,-24962,-17677.4,-14377.7,-19701.1,-15870.5
-20390.6,-27446.3,93750,-24965.4,-17682.1,-14382.1,-19705.8,-15872.5
-20389.6,-27442.9,93750,-24968,-17680,-14376.9,-19703.7,-15871.6
-20390.9,-27436.7,93750,-24964.1,-17678.2,-14373.2,-19702,-15871.4
-20388.3,-27430.2,93750,-24957.6,-17675.4,-14370.9,-19699.1,-15871.1
-20379.7,-27431.2,93750,-24957.2,-17672.2,-14368,-19695.9,-15869.3
-20379,-27436,93750,-24959.2,-17670.6,-14368.4,-19694.7,-15865.8
-20384.3,-27441.2,93750,-24962.2,-17671.4,-14372.9,-19695.2,-15854.6
-20387.5,-27443.7,93750,-24966.3,-17676.9,-14379.7,-19700.7,-15854.8
-20390.9,-27440,93750,-24966.9,-17682.3,-14384.2,-19706.1,-15860.1
-20390.9,-27440.8,93750,-24963.9,-17683.3,-14383.4,-19707,-15863.9
-20385.6,-27445.9,93750,-24962.4,-17680.5,-14378.3,-19704.1,-15868.3
-20381.2,-27441.3,93750,-24958.3,-17676.5,-14374.5,-19700.1,-15869.2
-20378.8,-27435,93750,-24954.5,-17672,-14370.2,-19695.4,-15867.6
-20381.1,-27434.7,93750,-24954.4,-17668.6,-14368.5,-19692.2,-15865
-20381.6,-27434,93750,-24958.3,-17667.3,-14368.2,-19690.8,-15858.3
-20386,-27434.6,93750,-24962.8,-17667.8,-14368.4,-19691.3,-15855.1
-20391.5,-27440.8,93750,-24965.5,-17670.6,-14370.6,-19694.5,-15856.4
-20395.9,-27445.8,93750,-24962,-17674.9,-14375,-19698.7,-15859.5
-20395.3,-27449.5,93750,-24958.4,-17675.7,-14376.3,-19699.7,-15863.8
-20391.6,-27444,93750,-24959.2,-17674,-14373,-19697.8,-15865.4
-20386.2,-27442,93750,-24960.5,-17668.1,-14366.5,-19691.7,-15863.2
-20382.7,-27440.8,93750,-24958.7,-17662.7,-14361.2,-19686.5,-15862
-20381.9,-27442.4,93750,-24955.8,-17662.5,-14361,-19686.3,-15868.3
-20385.1,-27444,93750,-24956.3,-17665.7,-14365.6,-19689.4,-15872.6
-20392.9,-27443.5,93750,-24959.2,-17671.6,-14373,-19695.2,-15873.7
-20400.7,-27445.7,93750,-24963.7,-17676.2,-14377.8,-19700,-15874.4
-20397.6,-27450,93750,-24969.3,-17676.3,-14377.9,-19700.2,-15873.4
-20393.3,-27448,93750,-24964.2,-17676.4,-14377.8,-19699.9,-15872.3
-20389.2,-27446.8,93750,-24959.9,-17673.3,-14374.1,-19696.8,-15870.3
-20387.2,-27444.5,93750,-24956.8,-17669.1,-14370.4,-19692.8,-15867.7
-20384.3,-27439.1,93750,-24956.4,-17666.1,-14368.1,-19689.7,-15866.2
-20383.6,-27435.8,93750,-24958,-17667.9,-14370,-19691.5,-15865.7
-20386.9,-27433,93750,-24960.1,-17673.1,-14376,-19697.1,-15867.2
-20391.5,-27434.7,93750,-24962.2,-17679.1,-14381,-19703.1,-15869.7
-20390.1,-27443.3,93750,-24965.9,-17682.9,-14382.1,-19706.6,-15872
-20389.5,-27449.4,93750,-24963.8,-17682.8,-14381.5,-19706.4,-15872.3
-20390.4,-27445.8,93750,-24956.4,-17681.6,-14380.5,-19705.4,-15871.6
-20385.1,-27441.5,93750,-24953.5,-17677,-14376.3,-19700.9,-15867.1
-20384.6,-27438,93750,-24955.6,-17670,-14372.2,-19694.1,-15853.2
-20387.1,-27431.4,93750,-24952.3,-17669.5,-14372.5,-19693.5,-15849.8
-20385.9,-27430.2,93750,-24951.5,-17674.2,-14376.8,-19698.1,-15854.5
-20387.5,-27436.7,93750,-24957.1,-17677.1,-14379.3,-19701.1,-15859.5
-20391,-27443.3,93750,-24957,-17681.8,-14383,-19705.6,-15867.2
-20393.2,-27448.5,93750,-24955.6,-17683.8,-14383.7,-19707.6,-15870.8
-20391.6,-27443.3,93750,-24957,-17682.9,-14381.9,-19706.5,-15870.6
-20388.3,-27439.5,93750,-24958.8,-17678.1,-14377.1,-19701.6,-15868.3
-20384.9,-27435.1,93750,-24961.8,-17667.6,-14366.7,-19691,-15858.5
-20380.1,-27431.5,93750,-24958.3,-17662.1,-14362.8,-19685.7,-15852.1
-20383.2,-27435.3,93750,-24953.8,-17662.8,-14364.8,-19686.6,-15852.5
-20387.9,-27439.4,93750,-24952.5,-17666.1,-14369.7,-19689.9,-15855.2
-20393.4,-27441.2,93750,-24953.3,-17674.8,-14380.6,-19698.5,-15862.4
-20393.5,-27439.9,93750,-24957.1,-17681.7,-14386.6,-19705.2,-15868.1
-20385.5,-27443.8,93750,-24961.9,-17681.4,-14385.3,-19704.9,-15869.8
-20380,-27439.4,93750,-24956.2,-17678.8,-14381.8,-19702.5,-15870.7
-20381.1,-27430.4,93750,-24943.8,-17675.8,-14376.3,-19699.4,-15877
-20380.1,-27432.4,93750,-24942.4,-17671.7,-14371.6,-19695.3,-15878.8
-20380.6,-27433.5,93750,-24947.1,-17668.7,-14370.1,-19692.3,-15875.9
-20387.8,-27426.9,93750,-24946,-17672.1,-14375.8,-19695.9,-15875.2
-20394.2,-27432.9,93750,-24952,-17675.3,-14380.2,-19699,-15876
-20399,-27443.4,93750,-24961,-17677.7,-14382.9,-19701.4,-15876.1
-20398.2,-27446.9,93750,-24963.4,-17679.8,-14383.8,-19703.5,-15876.2
-20398.6,-27443.2,93750,-24959.9,-17680,-14383.9,-19703.7,-15875.5
-20397.4,-27435.5,93750,-24956.1,-17677,-14380.5,-19700.8,-15874.2
-20391.3,-27430.4,93750,-24951.3,-17672.1,-14373.1,-19695.7,-15871
-20389.8,-27429.9,93750,-24950.4,-17668.4,-14370.3,-19692.3,-15868.6
-20393.9,-27430.2,93750,-24951.3,-17667.6,-14370.1,-19691.7,-15867.5
-20397.1,-27437.9,93750,-24960.1,-17669.1,-14372.4,-19693,-15869
-20401.6,-27441.8,93750,-24962.9,-17674.6,-14380,-19698.5,-15871.6
-20406.4,-27445.5,93750,-24960.2,-17679.8,-14385.8,-19703.5,-15873.2
-20407.6,-27445.7,93750,-24955.9,-17681.1,-14385.4,-19704.8,-15871.3
-20406.4,-27442.7,93750,-24956.4,-17677.7,-14381.9,-19701.6,-15859
-20397.9,-27434.9,93750,-24954.3,-17673,-14375.9,-19696.9,-15855
-20388.7,-27433.4,93750,-24955.4,-17668.3,-14370.5,-19692,-15854.5
-20386.2,-27435.6,93750,-24955.6,-17665.3,-14368,-19689,-15855.8
-20386.4,-27438.6,93750,-24953.6,-17667.6,-14370.9,-19691.5,-15861.5
-20388.8,-27444.9,93750,-24953.7,-17673.1,-14378,-19697,-15866.7
-20394.7,-27447.4,93750,-24957.5,-17678,-14384.5,-19701.7,-15870.2
-20400,-27447.3,93750,-24961.9,-17679.9,-14387.1,-19703.4,-15871.6
-20401.9,-27437.2,93750,-24961.8,-17675.5,-14382.9,-19699.3,-15865.6
-20393.9,-27428.8,93750,-24955.8,-17671.3,-14378.5,-19695.2,-15861
-20386.9,-27423.6,93750,-24949.1,-17666.7,-14373.2,-19690.6,-15860.2
-20384,-27422.3,93750,-24944,-17663.3,-14368.9,-19687.1,-15859.8
-20383.6,-27431.2,93750,-24948.4,-17663.8,-14370.7,-19687.5,-15862.9
-20386.7,-27436.5,93750,-24952.4,-17667.1,-14374.2,-19690.8,-15866.9
-20391.3,-27439.6,93750,-24958.8,-17672.5,-14379.9,-19696.1,-15869.5
-20396,-27440.4,93750,-24961.9,-17677,-14382.8,-19700.5,-15872.7
-20394.2,-27442.1,93750,-24962.8,-17676.2,-14379.2,-19699.9,-15880.5
-20388.8,-27446,93750,-24960.5,-17674.2,-14376.5,-19698,-15883
-20387.1,-27443.7,93750,-24952.7,-17670.7,-14372.6,-19694.3,-15879.7
-20382.3,-27437,93750,-24950.2,-17666.2,-14367.8,-19689.5,-15875.7
-20385.4,-27431.1,93750,-24952.1,-17665.4,-14369.8,-19689.3,-15874
-20388.4,-27433,93750,-24956.4,-17667.9,-14373.4,-19691.9,-15873.8
-20392.5,-27435.8,93750,-24956.6,-17672.7,-14377.9,-19696.6,-15874.5
-20398.4,-27437.7,93750,-24959.2,-17680.5,-14387.2,-19704.4,-15877.9
-20398.2,-27439.8,93750,-24964.4,-17683.4,-14389.6,-19707.1,-15880
-20394.9,-27438.5,93750,-24963,-17681.6,-14384.5,-19704.9,-15878.3
-20396.1,-27433.4,93750,-24956.5,-17677,-14379.3,-19700.8,-15875.8
-20391.3,-27430.6,93750,-24952.8,-17670.5,-14372,-19694.4,-15873.6
-20387.1,-27427.5,93750,-24949.5,-17668.4,-14370.1,-19692.1,-15873.2
-20391.3,-27428.2,93750,-24950.1,-17669,-14372.7,-19692.6,-15873.5
-20395,-27433.4,93750,-24954.8,-17670.4,-14375.6,-19694.1,-15873.8
-20397.7,-27441.2,93750,-24960,-17674.8,-14382.1,-19698.5,-15872.8
-20401.2,-27449.4,93750,-24962.1,-17678.6,-14388.2,-19702.4,-15863.1
-20398.7,-27454.5,93750,-24962.7,-17677.3,-14386,-19701.2,-15860.6
-20395.6,-27449.7,93750,-24961,-17674.7,-14382.4,-19698.5,-15861.5
-20393.3,-27437.4,93750,-24954,-17671.8,-14378.3,-19695.6,-15863.1
-20387.1,-27426.8,93750,-24946.6,-17668.8,-14375,-19692.5,-15867.5
-20386.3,-27427.7,93750,-24948.8,-17667.3,-14374,-19690.9,-15868.9
-20387.1,-27437.5,93750,-24960.2,-17665.4,-14371.7,-19689.1,-15867.8
-20390.2,-27443,93750,-24967.5,-17668.6,-14376.4,-19692.4,-15867.9
-20395.8,-27439.2,93750,-24971.2,-17671.5,-14380.1,-19695.4,-15863.5
-20397.1,-27437.6,93750,-24969,-17674.6,-14382.9,-19698.5,-15861.6
-20395.4,-27429.6,93750,-24963.3,-17676.3,-14382.1,-19699.9,-15863.3
-20390.1,-27425.9,93750,-24957.8,-17674.2,-14377.7,-19698.1,-15863.9
-20384.4,-27425.2,93750,-24954.3,-17670.5,-14373.9,-19694.5,-15865.9
-20381.8,-27420.7,93750,-24950.2,-17669.5,-14371.4,-19693.1,-15866.3
-20383,-27424.3,93750,-24950.6,-17670.1,-14372.1,-19693.7,-15866
-20388.4,-27427.7,93750,-24947.4,-17673.2,-14375.2,-19696.8,-15868.3
-20391.5,-27433.3,93750,-24951.6,-17678.5,-14380.4,-19702,-15877.9
-20394.9,-27439.2,93750,-24961.7,-17680.3,-14381.5,-19703.8,-15883
-20398.4,-27439.1,93750,-24962.1,-17681.5,-14382.8,-19705.2,-15883.1
-20396,-27435.5,93750,-24958.5,-17679.5,-14381.1,-19703.1,-15881.2
-20389.8,-27430.6,93750,-24956.1,-17675.5,-14378.3,-19699.2,-15878.7
-20384.3,-27427.6,93750,-24953.6,-17671.6,-14374.8,-19695.2,-15876
-20382.2,-27426.9,93750,-24949.9,-17669.7,-14373.3,-19693.4,-15873.9
-20387.2,-27429,93750,-24951.1,-17671.9,-14378.1,-19695.9,-15874.7
-20391.6,-27430.2,93750,-24953.5,-17675.1,-14382.9,-19699,-15876.3
-20394.7,-27431.5,93750,-24956,-17681.1,-14388.3,-19704.5,-15877.9
-20395,-27438.3,93750,-24964.1,-17683.3,-14389.8,-19706.9,-15879.4
-20391.8,-27438.1,93750,-24968.3,-17681,-14384.9,-19704.6,-15878.8
-20389,-27433,93750,-24964.7,-17679.4,-14381.8,-19703.3,-15878.6
-20387.9,-27426.7,93750,-24957.6,-17675.7,-14377.1,-19699.2,-15876.8
-20383,-27424,93750,-24956.8,-17672.2,-14373.6,-19695.7,-15874.4
-20384.3,-27423.1,93750,-24954.4,-17672.8,-14376.4,-19696.5,-15871
-20387.9,-27430.7,93750,-24951.9,-17675.1,-14381.8,-19698.9,-15861.3
-20388.8,-27440.6,93750,-24955.7,-17677.4,-14384,-19701.3,-15860.4
-20394.4,-27441.9,93750,-24959.4,-17681.6,-14387,-19705.3,-15864
-20393.1,-27438.2,93750,-24961.5,-17683.6,-14388.1,-19707.2,-15868.1
-20386.9,-27433.7,93750,-24959.7,-17682,-14385.5,-19705.6,-15873.8
-20385.8,-27428.2,93750,-24955.7,-17678.8,-14381.4,-19702.6,-15875
-20383.7,-27425.5,93750,-24953.7,-17671.6,-14374.2,-19695.3,-15873
-20385,-27428.2,93750,-24953.9,-17667.3,-14372.6,-19691.3,-15870.3
-20386.2,-27426.8,93750,-24958.3,-17665.8,-14372.5,-19689.7,-15864.3
-20385.9,-27427.4,93750,-24965.2,-17666.1,-14374.1,-19689.9,-15861.2
-20389.9,-27428.7,93750,-24962,-17673,-14382.5,-19696.7,-15864.8
-20394,-27434.5,93750,-24960.9,-17677.5,-14386.5,-19701,-15869
-20394.7,-27438,93750,-24960.9,-17675.8,-14383.9,-19699.5,-15872.2
-20389.8,-27436,93750,-24960.4,-17674.3,-14380,-19697.9,-15873.4
-20384,-27429.4,93750,-24958.3,-17670.1,-14374.3,-19693.8,-15871.7
-20378.6,-27422.4,93750,-24956.2,-17667.7,-14370.8,-19691.4,-15871
-20378.8,-27422.6,93750,-24953.6,-17667.8,-14369.2,-19691.3,-15878
-20386.6,-27425.3,93750,-24954.2,-17671,-14373.7,-19694.6,-15882.4
-20389.8,-27430,93750,-24958.5,-17675.7,-14380.6,-19699.3,-15883.1
-20395.6,-27432.5,93750,-24962.7,-17679.9,-14385.7,-19703.3,-15883.6
-20396.1,-27433.6,93750,-24961.2,-17682.2,-14387.9,-19705.7,-15884
-20391.2,-27439.8,93750,-24963.6,-17679.6,-14384.4,-19703.2,-15883.2
-20385.3,-27439.8,93750,-24962.5,-17674,-14377.5,-19697.4,-15880.4
-20385.8,-27434.7,93750,-24957.6,-17670,-14375.4,-19693.5,-15878
-20387,-27429.2,93750,-24952.7,-17667.2,-14373.6,-19690.6,-15876.4
-20388.3,-27431.5,93750,-24951.9,-17668.1,-14373.6,-19691.8,-15874.8
-20394.7,-27429.6,93750,-24954.9,-17672.2,-14377.6,-19695.9,-15875.5
-20398.3,-27432.5,93750,-24962.7,-17676.7,-14381.3,-19700.3,-15877.1
-20392.9,-27439,93750,-24971.1,-17681.3,-14385.3,-19705,-15879.9
-20392.5,-27439,93750,-24971,-17681.5,-14385.2,-19705,-15881
-20393,-27438.8,93750,-24967.3,-17677.3,-14380.4,-19701.1,-15879.5
-20386,-27438.6,93750,-24962.5,-17672.7,-14376.5,-19696.5,-15874.3
-20388,-27431.7,93750,-24956.4,-17668.8,-14374.5,-19692.6,-15860.2
-20387.3,-27427.5,93750,-24953.3,-17668.1,-14373.5,-19691.8,-15856.5
-20389.4,-27433.7,93750,-24955.2,-17669.6,-14374.5,-19693.3,-15859.2
-20392.6,-27440.1,93750,-24957,-17673.6,-14378.2,-19697.4,-15863.2
-20392.4,-27449.4,93750,-24960.3,-17677.1,-14380.5,-19700.8,-15870.2
-20390.8,-27455.7,93750,-24963,-17678.1,-14380.4,-19701.5,-15873.2
-20392.6,-27453.9,93750,-24960.3,-17676.3,-14378.1,-19700,-15872.7
-20395.1,-27443.9,93750,-24957.3,-17673.8,-14375.7,-19697.5,-15870.7
-20386.8,-27436.2,93750,-24961.7,-17664.1,-14366.2,-19687.9,-15861.7
-20379.9,-27428.8,93750,-24958.7,-17660.1,-14363.3,-19683.9,-15856.6
-20379.7,-27427.1,93750,-24960.4,-17662.8,-14367.2,-19686.5,-15858.1
-20380.4,-27433.7,93750,-24962.3,-17665.9,-14370.5,-19689.4,-15860.6
-20389,-27439.7,93750,-24960.9,-17672.5,-14378.4,-19696.1,-15867.1
-20398.2,-27440.9,93750,-24960.6,-17677.7,-14382.5,-19701.3,-15871.7
-20397.9,-27438.2,93750,-24961.2,-17679.1,-14382.3,-19702.7,-15872.7
-20391.4,-27436.7,93750,-24961.8,-17675.5,-14377.3,-19698.9,-15872.4
-20382.7,-27436.1,93750,-24958.4,-17669.4,-14369.8,-19692.9,-15877.3
-20378.3,-27433.5,93750,-24954.6,-17664.8,-14365.7,-19688.4,-15878
-20384.5,-27431.1,93750,-24950.8,-17664.2,-14367.7,-19687.7,-15875.8
-20388.7,-27433.1,93750,-24950.5,-17667.9,-14372.9,-19691.5,-15875
-20393,-27440.3,93750,-24955.1,-17671.7,-14377.1,-19695.1,-15875.3
-20399.1,-27441.7,93750,-24958.8,-17676.9,-14382.6,-19700.6,-15876.4
-20406.3,-27438.7,93750,-24960.2,-17679.4,-14384,-19703.4,-15877
-20410,-27444.1,93750,-24964.1,-17674.1,-14378.1,-19698.2,-15874.9
-20406,-27452.1,93750,-24967.7,-17665.2,-14369.1,-19689.1,-15870.5
-20392.9,-27449.4,93750,-24963,-17661.5,-14364.7,-19685.2,-15866.4
-20383.3,-27438.5,93750,-24957.3,-17662.2,-14367.4,-19685.9,-15865.6
-20384.1,-27434.2,93750,-24956.1,-17665.8,-14371.8,-19689.3,-15866.9
-20388.1,-27436.3,93750,-24956.2,-17670.9,-14375.8,-19694.2,-15869.5
-20391.7,-27440.8,93750,-24965.6,-17675.3,-14380.8,-19698.8,-15872.2
-20397.1,-27445.4,93750,-24975.7,-17677.3,-14382.3,-19701,-15873.1
-20399.1,-27445.4,93750,-24973.5,-17678.1,-14382.2,-19701.6,-15870.2
-20396.8,-27441.9,93750,-24968.2,-17676.9,-14381.7,-19700.5,-15858.4
-20391.1,-27436.4,93750,-24961.2,-17670.5,-14373.9,-19694.4,-15854.2
-20383.5,-27436.1,93750,-24956,-17665.3,-14367.6,-19689.2,-15854.2
-20381.5,-27436.1,93750,-24952.4,-17664.3,-14367.1,-19687.9,-15856.2
-20382,-27439.7,93750,-24950.2,-17667.9,-14371,-19691.5,-15862.1
-20385.7,-27441.9,93750,-24956.4,-17672.3,-14376.5,-19696.2,-15866.3
-20390.6,-27438.3,93750,-24962.5,-17677.7,-14382.6,-19701.9,-15869.3
-20392.9,-27438.9,93750,-24971.7,-17680.6,-14384.7,-19704.7,-15869.8
-20388.4,-27437.7,93750,-24976.3,-17675.7,-14378.5,-19699.5,-15863
-20379.8,-27431.2,93750,-24970.2,-17672.2,-14374,-19695.5,-15860.4
-20373.6,-27421.5,93750,-24962.5,-17669.1,-14370,-19692.5,-15861.2
-20372.2,-27421.4,93750,-24958.4,-17663.9,-14365.9,-19687.5,-15859.8
-20370.4,-27437.1,93750,-24962.4,-17662.5,-14366.2,-19686.1,-15861.8
-20371.6,-27441.9,93750,-24963,-17667.7,-14371.7,-19691.4,-15865.6
-20382.2,-27437.2,93750,-24962.7,-17675.1,-14379.5,-19698.6,-15868.1
-20388,-27437.3,93750,-24964.5,-17679.9,-14384.4,-19703.9,-15871.3
-20379.4,-27436.2,93750,-24963.9,-17681.6,-14383.4,-19705.3,-15880.5
-20376.1,-27438.4,93750,-24963.2,-17679.3,-14379.6,-19703,-15883.2
-20372.8,-27435.7,93750,-24959.7,-17675,-14375.2,-19698.7,-15879.2
-20369.2,-27426.8,93750,-24956.3,-17671.9,-14373.5,-19695.7,-15876.3
-20370.1,-27427.9,93750,-24956.3,-17669.8,-14372,-19693.4,-15874.6
-20372.5,-27433.1,93750,-24956.8,-17671.1,-14374.3,-19694.9,-15873.8
-20377.3,-27438.6,93750,-24963.3,-17674,-14379.5,-19697.9,-15875
-20385.3,-27447.1,93750,-24973.7,-17676.2,-14384.9,-19700,-15877
-20387.1,-27446,93750,-24976.9,-17678.3,-14386.5,-19702,-15878.5
-20383.4,-27440.6,93750,-24972.3,-17678.3,-14383.7,-19702,-15877.5
-20377.9,-27439.7,93750,-24966.3,-17676.1,-14380.1,-19699.8,-15875.8
-20375.6,-27439.4,93750,-24959.4,-17670.3,-14372,-19694,-15873.5
-20373.8,-27435.7,93750,-24959.2,-17666.2,-14367.2,-19690,-15872.3
-20374.7,-27437.7,93750,-24964.8,-17667.3,-14370.5,-19691.1,-15872.8
-20377.2,-27437.6,93750,-24966.2,-17670.9,-14375.8,-19694.7,-15873.5
-20385.8,-27442.5,93750,-24967.7,-17676.3,-14382,-19700.1,-15872.4
-20391.1,-27452.8,93750,-24975,-17678.2,-14384.6,-19701.9,-15862.5
-20385.7,-27453.7,93750,-24980.6,-17677.3,-14381.3,-19700.9,-15860.1
-20380.3,-27446.6,93750,-24976.4,-17675.6,-14377.7,-19699,-15861.2
-20375.3,-27439,93750,-24966.5,-17672.7,-14373.5,-19696.3,-15862.9
-20370.5,-27433.1,93750,-24960,-17670.1,-14369.3,-19693.5,-15866.4
-20371.7,-27431.9,93750,-24960,-17669.5,-14369.2,-19693.1,-15867.5
-20373,-27434,93750,-24967.3,-17669.9,-14369,-19693.4,-15867.4
-20382.2,-27437,93750,-24972.9,-17673.2,-14373.6,-19696.7,-15867.7
-20384.7,-27440.5,93750,-24975,-17675.7,-14378.1,-19699.5,-15863.5
-20381.3,-27444.3,93750,-24971.7,-17676.7,-14379.5,-19700.5,-15860.7
-20376.7,-27443.4,93750,-24969.2,-17676,-14377.7,-19699.7,-15861.4
-20377.5,-27439.6,93750,-24965.8,-17671.7,-14373,-19695.4,-15861.8
-20373.9,-27434.3,93750,-24960.7,-17669.2,-14370.1,-19693,-15864
-20372.4,-27428.5,93750,-24959.8,-17666.6,-14367.7,-19690.3,-15864.4
-20372,-27430.4,93750,-24964.8,-17666,-14367.5,-19689.7,-15864.2
-20371,-27436.2,93750,-24966.9,-17667.6,-14369.4,-19691.3,-15865.8
-20373.7,-27442.4,93750,-24965.3,-17674.1,-14373.7,-19697.6,-15874.8
-20386.8,-27449,93750,-24961.5,-17680.2,-14380.7,-19703.7,-15880.9
-20386.8,-27455.4,93750,-24963.7,-17679.6,-14380.2,-19703.4,-15879.5
-20377.3,-27455.2,93750,-24965.9,-17677.9,-14379.1,-19701.7,-15877.6
-20375.1,-27445.4,93750,-24963.7,-17673,-14373.9,-19696.9,-15874.6
-20376.3,-27436.2,93750,-24963.6,-17668.3,-14370.2,-19692,-15871.6
-20370.3,-27428.6,93750,-24961.7,-17668.1,-14372.3,-19691.9,-15871.1
-20374.9,-27431.6,93750,-24963.9,-17671,-14377.5,-19694.7,-15872
-20383.4,-27436.5,93750,-24968,-17672.1,-14379.4,-19695.7,-15873
-20384.7,-27440.1,93750,-24972.4,-17676.4,-14383.4,-19700.3,-15874
-20384.8,-27442.7,93750,-24972.9,-17680.5,-14386.9,-19704.4,-15875.6
-20382,-27443.2,93750,-24972.1,-17679.1,-14384.4,-19703,-15875.8
-20375.6,-27446.4,93750,-24971.5,-17674.9,-14378.3,-19698.6,-15875.1
-20371.7,-27441.2,93750,-24965.2,-17672.2,-14376.1,-19696.1,-15873.6
-20368.3,-27435,93750,-24962.2,-17669.6,-14373.8,-19693.5,-15871.5
-20370.7,-27435.9,93750,-24962.6,-17669.3,-14375.1,-19693,-15867.4
-20374.2,-27443.7,93750,-24967,-17670.7,-14379.1,-19694.3,-15856.5
-20374.6,-27448.2,93750,-24973.3,-17673.9,-14383.6,-19697.7,-15855.7
-20378.5,-27447.4,93750,-24975,-17679.3,-14386.6,-19703,-15859.7
-20380.6,-27443.8,93750,-24973.3,-17681.3,-14386.7,-19705,-15863.7
-20375.3,-27440.1,93750,-24970.9,-17680.5,-14384,-19704.4,-15868.9
-20368,-27438.9,93750,-24968.1,-17677.4,-14379.9,-19701,-15870.1
-20364.5,-27436,93750,-24960.5,-17672.9,-14374.6,-19696.3,-15868.2
-20366.9,-27431.9,93750,-24958.2,-17671.7,-14374.2,-19695.2,-15866.2
-20368.2,-27430.9,93750,-24964.7,-17669.6,-14372,-19693.2,-15859.4
-20366.2,-27439.9,93750,-24969.5,-17668.2,-14371.7,-19692,-15856.2
-20369.9,-27444.7,93750,-24970.7,-17673.2,-14378,-19697.1,-15859
-20375.3,-27445.1,93750,-24970.7,-17677.1,-14381.8,-19700.9,-15862
-20379.5,-27444.6,93750,-24969.8,-17676.9,-14381.5,-19700.8,-15865.8
-20377.5,-27440,93750,-24967.2,-17676.1,-14378.1,-19700,-15867.5
-20369.5,-27435.1,93750,-24966.9,-17670.5,-14371.7,-19694.3,-15865.7
-20361.5,-27437.1,93750,-24966.9,-17665.2,-14366.7,-19689,-15864.5
-20360.9,-27438,93750,-24960.9,-17664.5,-14365.5,-19688.3,-15870.5
-20365.9,-27441.5,93750,-24962.1,-17668.4,-14371.3,-19692,-15874.9
-20369.9,-27450.1,93750,-24964.5,-17673.7,-14378.7,-19697.5,-15876
-20377.5,-27454.2,93750,-24967.7,-17677.8,-14382.3,-19701.4,-15876.4
-20383.1,-27450.6,93750,-24965.2,-17680.3,-14383.3,-19704.1,-15876.3
-20381,-27447.1,93750,-24967.6,-17678.4,-14379.2,-19702.4,-15874.4
-20373.1,-27440.7,93750,-24969.8,-17675.8,-14374.8,-19699.6,-15871.7
-20367.9,-27443.2,93750,-24968.9,-17670.2,-14370.2,-19694.1,-15868.3
-20367.6,-27443.9,93750,-24965.2,-17666.2,-14366.9,-19690.1,-15865.6
-20369,-27444.3,93750,-24962.1,-17668.1,-14368.8,-19691.9,-15864.7
-20372.1,-27448.1,93750,-24965,-17672,-14373.7,-19695.7,-15865.9
-20377.6,-27452.3,93750,-24967,-17676.3,-14377.1,-19700.3,-15867.9
-20381.2,-27460.3,93750,-24970.2,-17679.4,-14379.3,-19703.3,-15870.3
-20382.8,-27455,93750,-24968,-17681,-14381.4,-19704.7,-15872.2
-20380.7,-27445.5,93750,-24969,-17679.3,-14379.1,-19703,-15871.8
-20377.9,-27440.6,93750,-24970.4,-17672.7,-14372.2,-19696.6,-15866.2
-20376.8,-27439.9,93750,-24967.8,-17666.7,-14368,-19690.6,-15852.1
-20369.6,-27443.3,93750,-24966.6,-17665.9,-14368.5,-19689.7,-15849.2
-20370.2,-27444,93750,-24966.8,-17668.1,-14370.4,-19691.9,-15852.1
-20375.3,-27445.4,93750,-24969.6,-17672.9,-14375,-19696.5,-15857
-20380.1,-27445.5,93750,-24972,-17678.8,-14380.8,-19702.4,-15865.4
-20381.8,-27445,93750,-24970.9,-17681.7,-14382.7,-19705.4,-15869.6
-20378.5,-27450.3,93750,-24971.2,-17678.6,-14378,-19702.3,-15869.1
-20374.7,-27448.7,93750,-24969.9,-17673.9,-14373.2,-19697.7,-15866.1
-20367.5,-27443.7,93750,-24968.2,-17666.3,-14365.8,-19690,-15857.2
-20362.2,-27437.8,93750,-24965.4,-17661.5,-14361,-19685.6,-15850.7
-20365.8,-27438.5,93750,-24964.7,-17663.3,-14363.1,-19687.2,-15850.8
-20375.2,-27441.9,93750,-24965.1,-17665.1,-14365.4,-19688.8,-15853.5
-20384.4,-27449.2,93750,-24969.4,-17669.5,-14371.2,-19693.4,-15859.5
-20386.6,-27453.7,93750,-24972.3,-17674.9,-14376.2,-19698.9,-15864.6
-20384.6,-27450.9,93750,-24970.7,-17677,-14377.3,-19701,-15865.9
-20373.9,-27442.7,93750,-24966.7,-17677.3,-14375.7,-19701.1,-15867
-20362,-27438.1,93750,-24960.3,-17674,-14369.9,-19697.9,-15872.8
-20366,-27438.4,93750,-24957.5,-17668.7,-14364,-19692.4,-15873.2
-20370.7,-27439.5,93750,-24958.9,-17666.1,-14362.8,-19689.9,-15869.5
-20372.9,-27443.3,93750,-24958.9,-17668.8,-14368.3,-19692.5,-15868.6
-20378.1,-27450.3,93750,-24955.6,-17673.9,-14374.6,-19697.5,-15869.8
-20384.9,-27455.6,93750,-24962.7,-17678.2,-14378.5,-19702,-15871.4
-20388,-27457.7,93750,-24971.5,-17677.9,-14377.4,-19701.7,-15871.2
-20389.2,-27448.5,93750,-24970.6,-17679.5,-14380.2,-19703.2,-15871.4
-20383.9,-27442.9,93750,-24968.9,-17674.9,-14374.8,-19698.7,-15869.8
-20374.7,-27441.8,93750,-24967.9,-17668,-14366.6,-19691.9,-15865.7
-20372.2,-27439.7,93750,-24963.6,-17665.6,-14365.5,-19689.4,-15863.6
-20374.1,-27439.9,93750,-24963.6,-17666,-14366.1,-19689.9,-15863.8
-20376.9,-27442,93750,-24969.6,-17670.4,-14370.2,-19694,-15866.2
-20379.9,-27452.1,93750,-24981.2,-17674,-14374.7,-19697.9,-15869
-20382.5,-27458.7,93750,-24983.1,-17675.5,-14377.2,-19699.4,-15870.3
-20384.8,-27457.4,93750,-24977.6,-17677.6,-14380,-19701.6,-15868.3
-20383.9,-27456.8,93750,-24973.1,-17675.2,-14377.2,-19698.9,-15856
-20376.3,-27450,93750,-24970,-17670.2,-14369.7,-19693.6,-15851.5
-20372.7,-27445.7,93750,-24965.2,-17666.5,-14365.8,-19690.1,-15852
-20370.5,-27447.7,93750,-24962.8,-17663.4,-14363,-19687.2,-15853.4
-20371.7,-27447.9,93750,-24963.3,-17666.1,-14365.6,-19689.7,-15859.7
-20379,-27446.8,93750,-24969.1,-17670.6,-14371.5,-19694.4,-15863.7
-20386,-27448.4,93750,-24976.9,-17674.4,-14376.3,-19698.1,-15865.8
-20387.9,-27450.6,93750,-24979.5,-17677.5,-14379.6,-19701,-15866.2
-20384.3,-27450,93750,-24978.1,-17672.8,-14373.9,-19696.3,-15858.7
-20376,-27447.4,93750,-24971,-17668.2,-14369.3,-19692,-15853.6
-20368.7,-27444.7,93750,-24964.4,-17664,-14363.8,-19687.8,-15852
-20369.6,-27442.4,93750,-24958.1,-17660.6,-14360.3,-19684.3,-15851.4
-20371.2,-27444.1,93750,-24959.1,-17662.5,-14364.3,-19686.3,-15855.6
-20372.9,-27443.7,93750,-24962.8,-17668.1,-14370.4,-19692,-15859.9
-20375.8,-27447.8,93750,-24966.1,-17674.1,-14376.7,-19697.8,-15863
-20376.8,-27457,93750,-24968.3,-17676.7,-14377,-19700.2,-15865.7
-20375.3,-27461.8,93750,-24962.9,-17677.7,-14375.7,-19701.2,-15873.3
-20377.2,-27458.2,93750,-24960.3,-17675.4,-14372.6,-19699.2,-15875.2
-20376.2,-27450.9,93750,-24959.6,-17669.5,-14367.8,-19693.6,-15871.7
-20372.2,-27443.1,93750,-24962.3,-17664.7,-14364.4,-19688.6,-15868.2
-20374.5,-27438.2,93750,-24959.9,-17664.6,-14365.9,-19688.7,-15866.3
-20377.8,-27442.4,93750,-24961.4,-17667.5,-14369.4,-19691.5,-15866
-20381.9,-27451.1,93750,-24968.6,-17669,-14371.5,-19692.8,-15866.1
-20385.2,-27457.8,93750,-24972.9,-17674.2,-14378.8,-19697.8,-15868.3
-20389.6,-27460.5,93750,-24977.5,-17675.1,-14379.6,-19698.4,-15869.2
-20382.9,-27458.1,93750,-24977.9,-17673.3,-14374.7,-19697,-15867.3
-20376.3,-27454.3,93750,-24973.4,-17672.5,-14373.7,-19696.3,-15866.8
-20372.7,-27448.4,93750,-24965.1,-17667.9,-14367.9,-19691.6,-15865.1
-20370.6,-27448.1,93750,-24960.4,-17663.7,-14363.1,-19687.5,-15863.9
-20374.2,-27448,93750,-24961.6,-17664.2,-14365.8,-19688,-15864.4
-20378.6,-27449.7,93750,-24968.2,-17666.1,-14368.6,-19689.9,-15864.7
-20385.5,-27451.2,93750,-24977.3,-17671.1,-14375.6,-19694.7,-15864.1
-20388.6,-27462.3,93750,-24983.2,-17673,-14379.3,-19696.6,-15854.7
-20385,-27462.6,93750,-24979.5,-17674,-14379.3,-19697.7,-15853.6
-20380.9,-27458.4,93750,-24975,-17672.4,-14376.2,-19696,-15855.4
-20373.9,-27453,93750,-24971.6,-17666.8,-14369.8,-19690.1,-15855.9
-20368.7,-27447.3,93750,-24966.1,-17663.2,-14365,-19686.5,-15859.1
-20371.4,-27448.4,93750,-24964,-17660.1,-14363.9,-19683.7,-15860.1
-20373.7,-27453.9,93750,-24963.9,-17661.2,-14367.3,-19685.1,-15860.6
-20378.4,-27456.6,93750,-24967,-17667.3,-14373.9,-19690.9,-15861.5
-20383.1,-27454.8,93750,-24972.3,-17670.2,-14377.1,-19693.7,-15858
-20381,-27453.8,93750,-24970.7,-17672.6,-14379.4,-19696.2,-15856.7
-20376.9,-27450.5,93750,-24968.3,-17671.5,-14377.1,-19695.3,-15857.9
-20372.4,-27446,93750,-24962.4,-17669.5,-14373.9,-19693.2,-15858.8
-20370.3,-27442.8,93750,-24960.8,-17665.6,-14369.8,-19689,-15860.7
-20366.5,-27438.2,93750,-24959.1,-17663.2,-14367.4,-19686.7,-15861.1
-20365.1,-27439.2,93750,-24961.1,-17664.2,-14369.1,-19687.9,-15861.4
-20365.1,-27440.6,93750,-24968.9,-17666.5,-14370.7,-19690,-15863.2
-20373,-27443.6,93750,-24965.5,-17671.5,-14374.4,-19694.9,-15872.7
-20377,-27450.8,93750,-24964.7,-17677.9,-14380.9,-19701.5,-15879
-20377.9,-27455.5,93750,-24966,-17679,-14381.4,-19702.5,-15878.2
-20372.3,-27453.5,93750,-24965.2,-17677.4,-14379.5,-19700.9,-15875.8
-20366.2,-27445.8,93750,-24960.7,-17674.5,-14376,-19698.3,-15873.2
-20367.8,-27436.9,93750,-24957.5,-17670.2,-14372.3,-19694,-15870.6
-20370.2,-27432.4,93750,-24959.7,-17666.3,-14370.3,-19690,-15868.7
-20371.6,-27444.2,93750,-24965.9,-17666.7,-14372.7,-19690.3,-15868.4
-20376.7,-27449.1,93750,-24968.3,-17668.5,-14375.6,-19692.1,-15869.2
-20381.2,-27451,93750,-24970.4,-17674,-14380.3,-19697.9,-15870
-20382.7,-27454.1,93750,-24971.6,-17678,-14383.9,-19701.7,-15871.6
-20380.6,-27453.3,93750,-24968.5,-17676.3,-14380.8,-19700,-15871
-20379.6,-27447.5,93750,-24964.8,-17674.1,-14376.6,-19698,-15871.7
-20373.9,-27443,93750,-24964,-17669.2,-14372.6,-19692.8,-15871.1
-20365.4,-27440.7,93750,-24963.4,-17666.2,-14368.6,-19689.8,-15868.7
-20367.5,-27443.5,93750,-24963.1,-17666.5,-14369.7,-19690.1,-15865.1
-20374.7,-27447.2,93750,-24962.4,-17669.6,-14375.3,-19693.2,-15854.8
-20380.6,-27447.7,93750,-24964.9,-17674.7,-14379.3,-19698.4,-15854.3
-20384.6,-27450.3,93750,-24973.7,-17676.6,-14380.4,-19700.3,-15857.6
-20381.1,-27453.2,93750,-24978.9,-17676.5,-14379.1,-19699.7,-15860.5
-20377.4,-27450.7,93750,-24970.4,-17675.9,-14376.8,-19699.3,-15865.3
-20375.2,-27450.8,93750,-24966.5,-17671.9,-14371.6,-19695.3,-15866.3
-20371,-27446.9,93750,-24965.2,-17665.5,-14365.3,-19689.2,-15863.7
-20371.6,-27444.5,93750,-24965.5,-17662.7,-14364,-19686.4,-15860.6
-20373,-27442.8,93750,-24967.5,-17660.8,-14364,-19684.5,-15853.9
-20371.4,-27446.1,93750,-24967.8,-17663.7,-14367.7,-19687.3,-15851.3
-20375.8,-27454,93750,-24972.4,-17667.3,-14371.2,-19690.9,-15854
-20380.7,-27456.3,93750,-24973.5,-17670,-14373.9,-19693.6,-15857.6
-20378.6,-27455.9,93750,-24973.1,-17671.7,-14375.3,-19695.3,-15862.4
-20374.3,-27452.9,93750,-24973.4,-17670.3,-14372,-19693.9,-15864
-20368.3,-27447.5,93750,-24969.7,-17665.6,-14366.2,-19689.3,-15862.3
-20367.3,-27443.7,93750,-24963.9,-17662.4,-14362.6,-19685.9,-15861.4
-20367.1,-27439.5,93750,-24958.8,-17663.5,-14363.2,-19686.8,-15868
-20369.5,-27443.7,93750,-24963.8,-17667.7,-14368.1,-19691.4,-15872.7
-20372.8,-27453.9,93750,-24968.9,-17669.4,-14371.1,-19692.9,-15872.8
-20377.6,-27462.4,93750,-24973.3,-17673.6,-14376.8,-19697,-15873.4
-20379.3,-27461.8,93750,-24973.1,-17675.7,-14378.6,-19699.3,-15873.5
-20381.8,-27458.2,93750,-24971.9,-17674.2,-14375.8,-19697.7,-15872.2
-20375.7,-27455.5,93750,-24974.3,-17669.9,-14370.9,-19693.3,-15869.7
-20367.7,-27451.6,93750,-24972.2,-17665.9,-14368,-19689.5,-15867.5
-20367.6,-27447.4,93750,-24967.8,-17662.6,-14365.5,-19686.3,-15865.6
-20373.3,-27451,93750,-24969.7,-17661.3,-14362.9,-19685,-15863.2
-20377.4,-27457.8,93750,-24973.9,-17664.8,-14367.2,-19688.6,-15863.5
-20378.1,-27461,93750,-24970.7,-17671.9,-14374.9,-19695.5,-15866.4
-20379.7,-27462.9,93750,-24973.3,-17677.4,-14379.3,-19701.1,-15870.1
-20380.3,-27464.2,93750,-24978.5,-17675.2,-14375.2,-19698.6,-15870.8
-20373,-27464,93750,-24984.7,-17670.6,-14369.4,-19693.7,-15868.6
-20370.4,-27456.7,93750,-24977.5,-17667.5,-14366.6,-19690.9,-15863.3
-20376.1,-27447.9,93750,-24966.7,-17664.5,-14364.7,-19688.2,-15850
-20374.7,-27447.2,93750,-24968.6,-17662.9,-14362.8,-19686.6,-15846.8
-20373.3,-27452.4,93750,-24973.8,-17664.4,-14363.2,-19687.7,-15849.1
-20380.5,-27457.2,93750,-24978.4,-17667.4,-14366.3,-19690.9,-15852.6
-20384.1,-27461.3,93750,-24982.9,-17670.6,-14370.3,-19694.5,-15859.3
-20380.5,-27462.7,93750,-24984.9,-17674.3,-14374.8,-19698,-15863.9
-20374.8,-27458.3,93750,-24979.4,-17675.4,-14376,-19699,-15865.3
-20375.2,-27454.3,93750,-24974.6,-17671.8,-14371.7,-19695.3,-15864.3
-20370.1,-27445.7,93750,-24971.3,-17664,-14365.1,-19687.7,-15856.5
-20365.9,-27441.5,93750,-24966.3,-17658.6,-14360.1,-19682.3,-15850.7
-20366.8,-27443.6,93750,-24966.8,-17659.5,-14361.6,-19683.2,-15851.7
-20370,-27448.7,93750,-24970.3,-17662.6,-14364.9,-19686.3,-15854.6
-20375.3,-27455.6,93750,-24971.4,-17670.5,-14373.7,-19693.9,-15861.6
-20377.7,-27457,93750,-24970.6,-17677.2,-14380.1,-19700.4,-15867.3
-20381.6,-27456.5,93750,-24971.4,-17675.3,-14377.4,-19698.5,-15867.9
-20378.7,-27455.8,93750,-24970.2,-17670.3,-14371.3,-19693.4,-15868.2
-20370.7,-27449.4,93750,-24964.4,-17665,-14364.3,-19688.3,-15873.4
-20368.1,-27445.4,93750,-24962.8,-17662.5,-14361.1,-19686,-15874.3
-20367.2,-27447.6,93750,-24963.4,-17662.1,-14361.7,-19685.6,-15871.6
-20372.4,-27450.3,93750,-24966.1,-17664.8,-14365.9,-19688.4,-15870.2
-20376.8,-27451.7,93750,-24971,-17670,-14371.8,-19693.3,-15870.2
-20381.9,-27457.4,93750,-24976.8,-17674.1,-14376.6,-19697.6,-15870.6
-20382.4,-27458.1,93750,-24979.6,-17676.9,-14377.9,-19700.5,-15870.8
-20378.7,-27459.3,93750,-24980.3,-17676.2,-14377.1,-19699.8,-15870.8
-20380.6,-27457.7,93750,-24972.9,-17669.7,-14371,-19693.2,-15868.9
-20376.8,-27454.4,93750,-24965.7,-17664.3,-14363.7,-19687.5,-15864.8
-20372.1,-27456.1,93750,-24966.2,-17660.4,-14359.9,-19683.7,-15861.6
-20371.9,-27460.5,93750,-24968.5,-17660,-14360,-19683.6,-15860.7
-20375.9,-27463.3,93750,-24971,-17663.6,-14363.2,-19687.3,-15862.3
-20381.8,-27463.1,93750,-24977.2,-17670.4,-14372,-19694,-15865.7
-20383.6,-27459.7,93750,-24980.7,-17676.3,-14378.4,-19700.1,-15868.4
-20384.5,-27456.9,93750,-24980.7,-17678.8,-14378.9,-19702.4,-15866.7
-20380.8,-27457.3,93750,-24981,-17675,-14374.7,-19698.7,-15854.5
-20374.6,-27454.1,93750,-24975.9,-17668.9,-14367.3,-19692.6,-15850
-20372.4,-27454.2,93750,-24971,-17663.3,-14360.6,-19687.1,-15849.4
-20368.7,-27456,93750,-24968.8,-17661.5,-14358.1,-19685.3,-15850.4
-20367,-27455.8,93750,-24967.8,-17665.7,-14361.3,-19689,-15856.9
-20372.8,-27458.6,93750,-24968.7,-17671.3,-14368.2,-19694.5,-15861.4
-20374.9,-27468.1,93750,-24974.9,-17674.6,-14371.5,-19698.4,-15863.5
-20379.8,-27472.3,93750,-24979.9,-17675.8,-14373.3,-19699.3,-15863.5
-20379.7,-27462.5,93750,-24980.1,-17672.7,-14369.6,-19696,-15856.6
-20375.8,-27453,93750,-24974.1,-17667.6,-14366,-19691,-15851.9
-20369.6,-27443.8,93750,-24966.2,-17664.1,-14362.3,-19687.6,-15851
-20364.2,-27440.2,93750,-24959.8,-17662.5,-14360.2,-19686.3,-15851.4
-20366.9,-27448.9,93750,-24961.9,-17663.4,-14362.4,-19686.6,-15855.6
-20369.2,-27454.5,93750,-24973.6,-17664.2,-14362.1,-19687.6,-15857.5
-20372.8,-27459.3,93750,-24988.5,-17667.1,-14364.9,-19690.5,-15858.7
-20380.4,-27460,93750,-24981.7,-17672.1,-14372.1,-19695.6,-15863.2
-20377,-27457.9,93750,-24969.7,-17677.6,-14376,-19701.1,-15873.5
-20368.9,-27460.4,93750,-24970,-17675.9,-14373.3,-19699.3,-15877.1
-20364.6,-27456.6,93750,-24969.4,-17670.3,-14367.4,-19693.9,-15874
-20368.5,-27450.1,93750,-24964.3,-17663.9,-14360.9,-19687.3,-15869.6
-20369.8,-27449.1,93750,-24962.2,-17662.3,-14360.3,-19685.8,-15866.9
-20370.1,-27454.9,93750,-24965.7,-17665.5,-14364.7,-19689.1,-15866.4
-20373.2,-27457.5,93750,-24970.6,-17669.8,-14370.5,-19693.4,-15866.9
-20383.2,-27457.5,93750,-24976.3,-17675.3,-14378.5,-19698.7,-15869.1
-20386.4,-27456.4,93750,-24979.2,-17676.5,-14380,-19699.6,-15870.8
-20381.7,-27455.8,93750,-24978,-17675.7,-14377,-19699.1,-15869.4
-20378.4,-27454,93750,-24976.3,-17672.7,-14372.3,-19696.2,-15867.4
-20374.3,-27448.7,93750,-24969.5,-17667.7,-14365.9,-19691,-15865.3
-20369,-27449.9,93750,-24964.7,-17664.8,-14362.9,-19688.4,-15864.6
-20369.8,-27455,93750,-24967.1,-17664.7,-14364.2,-19688.3,-15864.7
-20372.9,-27456.8,93750,-24970.5,-17667.3,-14367.8,-19690.7,-15864.8
-20379.8,-27460.5,93750,-24973.5,-17672.5,-14373.8,-19695.9,-15863.1
-20386.2,-27461.3,93750,-24975.2,-17677.3,-14379.8,-19700.8,-15853.9
-20386.6,-27457.5,93750,-24971.1,-17679.5,-14380.3,-19703.1,-15852.6
-20380.9,-27458.5,93750,-24971.4,-17676.4,-14375.2,-19699.7,-15854
-20371.7,-27450.8,93750,-24968.6,-17672.8,-14369.6,-19696,-15855.4
-20365.3,-27444.3,93750,-24964.6,-17668.3,-14364.1,-19691.6,-15858.5
-20368.7,-27442.9,93750,-24964.7,-17666.1,-14362.5,-19689.5,-15859.7
-20373.8,-27445.7,93750,-24967.5,-17665.7,-14363,-19689.2,-15859.4
-20377.7,-27452.4,93750,-24972.3,-17670.3,-14369.2,-19693.7,-15860.3
-20380.5,-27455.4,93750,-24975.1,-17673.2,-14373.6,-19696.3,-15856.7
-20381.7,-27457.1,93750,-24973,-17675,-14374.1,-19698.2,-15854.2
-20376.1,-27456.6,93750,-24972,-17673.6,-14370.7,-19696.9,-15854.1
-20368,-27453.7,93750,-24970.2,-17671.2,-14368.4,-19694.6,-15855.2
-20365.3,-27451.7,93750,-24964.8,-17668.3,-14366.4,-19691.9,-15858.2
-20365.1,-27447.5,93750,-24959.7,-17665.8,-14361.4,-19689.1,-15858.5
-20366.1,-27444.5,93750,-24960.7,-17666.5,-14363.8,-19690,-15859
-20370,-27441,93750,-24963,-17670.4,-14367.2,-19693.6,-15861.4
-20372.8,-27447.5,93750,-24966.3,-17675.4,-14370.5,-19698.6,-15870.7
-20377.5,-27451.5,93750,-24970.4,-17679.4,-14374.4,-19703,-15875.4
-20379.5,-27455.4,93750,-24974.8,-17680,-14375.2,-19703.7,-15874.2
-20374.2,-27457,93750,-24980.4,-17675.3,-14369.8,-19698.7,-15870.3
-20369.2,-27448.4,93750,-24978.3,-17671.8,-14366.3,-19694.7,-15866.9
-20370,-27442.9,93750,-24967.6,-17668.9,-14364.4,-19692.1,-15865
-20369.5,-27444.2,93750,-24962.5,-17668.3,-14365.1,-19691.6,-15864.1
-20368.2,-27450.6,93750,-24968.8,-17669.3,-14368.8,-19692.8,-15864.8
-20376.2,-27446.7,93750,-24972.2,-17672.3,-14372.9,-19695.8,-15865.9
-20382.5,-27450.6,93750,-24973.9,-17676.1,-14374.8,-19699.4,-15866.3
-20384.2,-27454.6,93750,-24978.1,-17679.1,-14376.7,-19702.6,-15867.3
-20377.6,-27453.2,93750,-24979.6,-17680.3,-14375.4,-19703.7,-15867.4
-20377,-27452.4,93750,-24978.2,-17675.8,-14368.4,-19699.5,-15866.9
-20376.2,-27448.8,93750,-24971.3,-17670.5,-14363.5,-19694.3,-15865.1
-20371.9,-27447.2,93750,-24963.9,-17668.4,-14361.8,-19691.9,-15863
-20374.9,-27445.8,93750,-24965.8,-17666.9,-14362.6,-19690.5,-15859.5
-20382.7,-27449.8,93750,-24970.1,-17668,-14367.8,-19691.6,-15849.5
-20384.5,-27455,93750,-24972,-17672.5,-14373.7,-19696,-15850.2
-20384.5,-27462,93750,-24978.2,-17674.4,-14375.1,-19698,-15854.2
-20385.2,-27461.9,93750,-24980.8,-17674.3,-14373.7,-19697.6,-15857.7
-20382,-27454.4,93750,-24976.5,-17673.2,-14372.2,-19696.5,-15862.8
-20378.5,-27448.4,93750,-24971.9,-17670.6,-14369.7,-19694,-15864.4
-20374.4,-27442.2,93750,-24967.8,-17665.8,-14364.1,-19689,-15862.9
-20375.1,-27442.8,93750,-24968.9,-17661.9,-14361.8,-19685.5,-15860.3
-20374.8,-27443.4,93750,-24973.8,-17659.4,-14361.6,-19683.1,-15853.6
-20373.9,-27447,93750,-24974.8,-17661.7,-14365.2,-19685.3,-15851.5
-20375.9,-27455,93750,-24976.2,-17666.2,-14369.3,-19689.8,-15855
-20381.6,-27458.9,93750,-24977.8,-17669.9,-14372.2,-19693.4,-15858.8
-20382.1,-27460.2,93750,-24976.7,-17671.6,-14373.1,-19695.1,-15863.1
-20379.3,-27456.9,93750,-24972.4,-17670.2,-14369.7,-19693.6,-15864.1
-20375.1,-27454,93750,-24966.2,-17665,-14364.3,-19688.4,-15862.2
-20369.9,-27454.9,93750,-24960.2,-17660,-14358.6,-19683.5,-15860.6
-20368.6,-27455.1,93750,-24956.3,-17660.1,-14358.9,-19683.8,-15867.2
-20372.4,-27451.9,93750,-24963,-17664,-14364,-19687.6,-15871.4
-20378.4,-27451.8,93750,-24970.1,-17670.5,-14371.2,-19693.7,-15871.8
-20384.9,-27456.3,93750,-24974.9,-17676.5,-14377,-19699.8,-15872.4
-20390.2,-27454.9,93750,-24971.5,-17678,-14378,-19701.5,-15872.3
-20388.8,-27450.9,93750,-24970.6,-17676.4,-14375.1,-19699.9,-15871
-20382.6,-27444.9,93750,-24970,-17673.8,-14370.4,-19697.3,-15868.6
-20376.2,-27439.2,93750,-24973.4,-17670,-14368.2,-19693.7,-15867
-20374.8,-27436.4,93750,-24983.2,-17662.5,-14360.8,-19686,-15863.5
-20378.8,-27440.2,93750,-24979,-17663.2,-14361.6,-19686.8,-15860.8
-20382.7,-27443.3,93750,-24971.8,-17669.3,-14368.8,-19692.9,-15862.4
-20386.1,-27449.3,93750,-24970.8,-17675.2,-14375.2,-19698.9,-15866
-20386.8,-27458.9,93750,-24974.7,-17678.1,-14376.8,-19701.6,-15869.3
-20389,-27457,93750,-24976.5,-17677.1,-14375.4,-19700.6,-15870.5
-20388.1,-27451.8,93750,-24976.4,-17674.5,-14373.1,-19698,-15869.3
-20384.1,-27445.4,93750,-24970.3,-17670.5,-14370.2,-19693.9,-15865
-20379.7,-27446.3,93750,-24967.4,-17664.8,-14366.2,-19688.5,-15851.7
-20377.1,-27440.7,93750,-24965.3,-17665.8,-14367.5,-19688.9,-15849.3
-20378.8,-27440.7,93750,-24968.3,-17667,-14369.1,-19690.2,-15853
-20383,-27445.1,93750,-24974.7,-17670.5,-14372.7,-19693.7,-15857.7
-20389,-27449,93750,-24973.9,-17676.6,-14377.7,-19700,-15865.3
-20388.3,-27454.8,93750,-24973.3,-17677.6,-14377.3,-19700.8,-15868.6
-20387.2,-27453.7,93750,-24973.6,-17674.6,-14372.3,-19698,-15867.6
-20385.3,-27447.4,93750,-24977.9,-17670.3,-14368,-19693.7,-15864.6
-20381.4,-27435.3,93750,-24973.2,-17664,-14362,-19687.7,-15856.4
-20372.2,-27433.5,93750,-24966.7,-17660.2,-14357.5,-19683.7,-15850.3
-20372.8,-27438.3,93750,-24965.4,-17662.2,-14359.4,-19685.6,-15850.6
-20376.6,-27442.5,93750,-24964.8,-17666.2,-14364.7,-19689.7,-15853.7
-20387,-27449.7,93750,-24965.5,-17671.9,-14371.6,-19695.3,-15859.8
-20395.1,-27452,93750,-24973.6,-17675.8,-14373.6,-19699.1,-15863.1
-20391.8,-27452.1,93750,-24977.4,-17674.9,-14371.1,-19698.4,-15863.3
-20384.9,-27449.5,93750,-24972.8,-17672.9,-14367.4,-19696.1,-15863.1
-20379,-27446.4,93750,-24965.1,-17669,-14361.8,-19692.3,-15868.6
-20379.9,-27442.4,93750,-24961,-17665.6,-14358.3,-19689,-15870
-20382.2,-27440.1,93750,-24960.2,-17665.7,-14360.4,-19689.2,-15867.9
-20381.9,-27440.9,93750,-24963.9,-17669.5,-14365.6,-19693,-15867.7
-20385.7,-27444.3,93750,-24968,-17673.7,-14369.9,-19696.8,-15868.6
-20389.2,-27451,93750,-24971.8,-17677.9,-14374.5,-19701.1,-15870
-20390.2,-27454.6,93750,-24975.5,-17679.1,-14375.9,-19702.2,-15869.9
-20390.5,-27451.1,93750,-24975.2,-17679.5,-14377.9,-19702.8,-15869.7
-20385.3,-27445.5,93750,-24971.2,-17676.7,-14374.8,-19700.1,-15868.9
-20379.9,-27445.1,93750,-24970.7,-17667.7,-14364.2,-19691,-15864.5
-20377.9,-27441.3,93750,-24968.7,-17664.1,-14362,-19687.4,-15862
-20376.7,-27445.5,93750,-24967.6,-17665.5,-14363.3,-19688.9,-15861.9
-20382.3,-27450.2,93750,-24969.9,-17668.3,-14366.6,-19691.9,-15863.6
-20389.5,-27454.1,93750,-24975.3,-17672.3,-14372.3,-19695.8,-15866.3
-20392.8,-27456.1,93750,-24981.1,-17675.5,-14376.2,-19698.9,-15868.2
-20392.4,-27452,93750,-24978.9,-17678.2,-14378.3,-19701.3,-15866.2
-20389.3,-27453.4,93750,-24973.8,-17677.7,-14377.2,-19701,-15854.7
-20384.2,-27448.9,93750,-24967.4,-17672.4,-14370.7,-19696,-15851.1
-20379.6,-27441.2,93750,-24969.6,-17666.2,-14363.2,-19689.6,-15850.4
-20373.5,-27440.8,93750,-24973,-17663.4,-14358.8,-19686.9,-15851.5
-20374.6,-27444.8,93750,-24970.6,-17665.9,-14363.2,-19689.2,-15857.5
-20384.4,-27450.9,93750,-24972,-17669.1,-14368.5,-19692.3,-15861.7
-20389.6,-27453.5,93750,-24976,-17674.2,-14374.4,-19697.8,-15864.1
-20393,-27452.8,93750,-24979,-17678.3,-14378,-19701.9,-15864.7
-20390.5,-27448,93750,-24979,-17675.1,-14373.1,-19698.3,-15857.7
-20384.3,-27441.2,93750,-24974.9,-17670.2,-14367.6,-19693.5,-15852.9
-20379.3,-27433.1,93750,-24968.9,-17665.1,-14361.7,-19688.4,-15852.1
-20374.8,-27430.3,93750,-24962.7,-17661.4,-14358.2,-19684.9,-15852.3
-20379.3,-27438.2,93750,-24959.8,-17664,-14362.7,-19687.6,-15855.9
-20385.7,-27445.2,93750,-24961.9,-17667.5,-14364.5,-19690.7,-15858.4
-20393.1,-27453,93750,-24968,-17669.9,-14366.3,-19693.7,-15860.1
-20395.8,-27461.8,93750,-24973.7,-17670.3,-14366.2,-19693.7,-15861.7
-20391.1,-27459.9,93750,-24973.1,-17673.7,-14369.1,-19697.2,-15870.2
-20383.4,-27452.2,93750,-24970.7,-17675.4,-14370.5,-19698.8,-15874.2
-20376.6,-27443.2,93750,-24963.3,-17674,-14369.2,-19697.3,-15872.4
-20373.7,-27438.8,93750,-24963.9,-17669.1,-14363.6,-19692.2,-15869.1
-20377.4,-27436.3,93750,-24967.6,-17665.8,-14361.4,-19689.2,-15866.1
-20379.3,-27441.7,93750,-24972.5,-17666.7,-14362.2,-19690.1,-15865.2
-20381.5,-27445.8,93750,-24974,-17671.9,-14368.5,-19695.2,-15866.1
-20386.8,-27444.7,93750,-24978,-17679.6,-14378.6,-19703,-15869.1
-20384.3,-27443.7,93750,-24988.5,-17681.1,-14380.4,-19704.9,-15870.9
-20383.7,-27441.6,93750,-24988.5,-17678.5,-14374.7,-19702.2,-15868.9
-20382,-27443.8,93750,-24983.3,-17673.1,-14368.5,-19697,-15865.9
-20375.5,-27439.4,93750,-24971,-17670.2,-14365.5,-19693.7,-15864.5
-20367.9,-27435.3,93750,-24964.2,-17670.1,-14365.5,-19693.4,-15865.1
-20369.6,-27432.1,93750,-24964,-17672.8,-14370.1,-19696,-15866.8
-20375.8,-27438.2,93750,-24970.3,-17673.6,-14371.3,-19697.2,-15867.6
-20379.9,-27443.8,93750,-24976.4,-17678.3,-14376.9,-19701.7,-15866.4
-20384.6,-27446.1,93750,-24976.4,-17683,-14382.5,-19706.7,-15857.6
-20384.5,-27443.2,93750,-24974.4,-17684,-14381.8,-19707.6,-15856.6
-20379,-27439.4,93750,-24974.5,-17682.2,-14377.7,-19705.6,-15858.4
-20374,-27435.8,93750,-24967.6,-17678.8,-14372.4,-19702.2,-15859.5
-20365.7,-27434.8,93750,-24963.3,-17672.9,-14364.7,-19696.4,-15862.1
-20363.3,-27431.2,93750,-24969.1,-17669.9,-14362.3,-19693.3,-15862.5
-20369.1,-27430.7,93750,-24969.8,-17672.4,-14366.4,-19695.7,-15863.1
-20378.1,-27441.6,93750,-24970.6,-17675.5,-14371,-19698.7,-15863.7
-20381.8,-27446.2,93750,-24974,-17676.3,-14371.9,-19699.6,-15858.9
-20383.8,-27444,93750,-24972.3,-17679.1,-14374.4,-19702.2,-15856.9
-20379.3,-27443.1,93750,-24972.6,-17676.7,-14372.1,-19700.2,-15857.5
-20374.6,-27443.5,93750,-24969.7,-17672.9,-14367.7,-19696.3,-15857.3
-20372.3,-27436.9,93750,-24963.5,-17670.2,-14366.3,-19693.8,-15859.9
-20368.5,-27431.6,93750,-24962.3,-17667.5,-14363.4,-19691,-15860.7
-20366.5,-27433.9,93750,-24966.7,-17667.8,-14363.4,-19691.2,-15860.1
-20369,-27438,93750,-24970.2,-17668.4,-14362.6,-19691.6,-15861.2
-20375.2,-27440.3,93750,-24973.2,-17673.5,-14368.2,-19697,-15870.9
-20381.7,-27442,93750,-24977.6,-17679.5,-14373.8,-19703.2,-15876.5
-20383.6,-27442.6,93750,-24977.6,-17681.3,-14375.1,-19704.8,-15875.8
-20383.4,-27441.6,93750,-24973.1,-17679.3,-14371.9,-19702.9,-15873.1
-20382.7,-27437,93750,-24966.7,-17676,-14367.8,-19699.5,-15870.3
-20375.1,-27433,93750,-24964.9,-17671.7,-14363,-19695.1,-15867.5
-20369.6,-27435.6,93750,-24968,-17668.7,-14361.4,-19692.5,-15865.2
-20372,-27443.4,93750,-24975.4,-17668.7,-14363.8,-19692.2,-15864.8
-20376.8,-27442.7,93750,-24982.8,-17671.3,-14368.5,-19694.8,-15866.2
-20382.8,-27441.4,93750,-24982.5,-17678.1,-14374.7,-19701.6,-15868.5
-20382.8,-27446.3,93750,-24983.6,-17681.9,-14376.8,-19705.2,-15870.2
-20375.5,-27447.7,93750,-24984,-17681.1,-14373.9,-19704.6,-15870.2
-20375.6,-27443,93750,-24980.3,-17677.4,-14368.6,-19700.8,-15869.5
-20375,-27439.2,93750,-24976.3,-17672.8,-14364.7,-19695.7,-15868
-20370.9,-27440.8,93750,-24974,-17667.8,-14360.2,-19691.1,-15865
-20372.6,-27439.8,93750,-24969,-17668.5,-14362.3,-19692,-15861.2
-20379.7,-27444.4,93750,-24970,-17670,-14366.7,-19693.5,-15850.5
-20386.1,-27450.5,93750,-24975.8,-17672.5,-14369.8,-19695.7,-15849.8
-20385,-27455.7,93750,-24981.6,-17675.7,-14373.2,-19699.2,-15854.3
-20380.4,-27454.2,93750,-24982.9,-17676.9,-14373.1,-19700.5,-15858
-20380.2,-27445.9,93750,-24980,-17676.8,-14371.2,-19700.4,-15863.2
-20380.6,-27438.4,93750,-24977.6,-17673.8,-14367.7,-19697.3,-15864.5
-20373.4,-27435.3,93750,-24975.7,-17668.1,-14362.6,-19691.6,-15862.9
-20370.5,-27435.1,93750,-24981.2,-17664.5,-14359.5,-19687.8,-15860.3
-20376.2,-27433.2,93750,-24986.4,-17661,-14356.3,-19684.2,-15851.9
-20378.4,-27438.2,93750,-24985.6,-17661.9,-14359.3,-19685.6,-15848.9
-20385.1,-27442.9,93750,-24986,-17666.9,-14364.7,-19690.6,-15852.1
-20388,-27444.1,93750,-24983.9,-17672.3,-14369.2,-19696,-15856.5
-20387.2,-27447.1,93750,-24980.6,-17674,-14369.9,-19697.4,-15861
-20382.5,-27445.5,93750,-24976.9,-17672.4,-14365.6,-19695.6,-15862.3
-20377.7,-27444.7,93750,-24970.8,-17668.9,-14360.6,-19692.2,-15860.2
-20372,-27442.3,93750,-24963.2,-17663.7,-14356.1,-19687,-15859.3
-20370.7,-27439.2,93750,-24964.1,-17664.4,-14356.5,-19687.6,-15866.2
-20373.1,-27435.4,93750,-24968.5,-17670.2,-14363.9,-19693.5,-15871.4
-20379.9,-27438.4,93750,-24975.8,-17675.1,-14370.1,-19698.3,-15871.9
-20382.8,-27444.4,93750,-24982.5,-17678.8,-14374.5,-19702,-15871.8
-20382.5,-27441,93750,-24980.9,-17682,-14377.9,-19705.5,-15872.1
-20380.8,-27437.2,93750,-24980.8,-17680.4,-14376.2,-19703.9,-15871.5
-20372.5,-27438.5,93750,-24982.2,-17674.2,-14368.6,-19697.6,-15868.1
-20371.2,-27439,93750,-24974.8,-17670.5,-14366.4,-19693.9,-15865.4
-20369.3,-27442.1,93750,-24970.5,-17666.9,-14364,-19690.4,-15863.2
-20369,-27441.6,93750,-24970.9,-17668.3,-14365.9,-19692,-15862.7
-20375.3,-27442.5,93750,-24976.8,-17671.5,-14369.4,-19694.7,-15863.5
-20378.7,-27446.4,93750,-24983,-17674.9,-14372.3,-19698.4,-15864.3
-20383.7,-27447.4,93750,-24983.1,-17680.6,-14378,-19704.1,-15869
-20383.1,-27447.9,93750,-24980.2,-17681,-14378.1,-19704.4,-15871.2
-20378.8,-27442.7,93750,-24977.7,-17678.1,-14374.4,-19701.5,-15870.3
-20375.1,-27438.3,93750,-24974.9,-17673.1,-14369.9,-19696.5,-15865.6
-20375.4,-27434.2,93750,-24974.7,-17668.2,-14365.9,-19691.3,-15852.1
-20371.2,-27431.2,93750,-24978.7,-17667,-14363.8,-19690.2,-15849
-20372.1,-27436.8,93750,-24979.5,-17668.8,-14364.5,-19692.1,-15851.2
-20376.1,-27445.7,93750,-24977.4,-17671.8,-14368.1,-19695,-15854.6
-20383,-27448.5,93750,-24977.7,-17677.2,-14373.4,-19700.4,-15862.2
-20382.2,-27447.1,93750,-24980.1,-17681.3,-14376.5,-19704.3,-15866.4
-20380.9,-27445,93750,-24978.7,-17679.7,-14374.1,-19702.7,-15866.3
-20384.2,-27434.7,93750,-24976.1,-17676.5,-14371,-19699.6,-15864.4
-20373.3,-27427.6,93750,-24977.8,-17669.4,-14363.6,-19692.6,-15855.9
-20369.9,-27426.5,93750,-24976.2,-17661.8,-14355.9,-19685.2,-15848.9
-20372,-27429.7,93750,-24972.7,-17663.3,-14358.1,-19687,-15848.7
-20374.9,-27436.9,93750,-24973.9,-17665.5,-14360.9,-19689.1,-15851.1
-20381.4,-27443.6,93750,-24978.4,-17672.3,-14368.6,-19695.7,-15857.3
-20383.5,-27445.6,93750,-24982.9,-17678.4,-14373.7,-19701.9,-15862.5
-20380.7,-27446.8,93750,-24985.5,-17676.8,-14371.1,-19700.3,-15862.5
-20376.1,-27445.8,93750,-24983.1,-17673.4,-14367.1,-19696.8,-15862.6
-20375.4,-27439,93750,-24975.2,-17668.6,-14360.4,-19692,-15867.4
-20374.1,-27433.3,93750,-24970.5,-17665.6,-14359,-19689.3,-15869
-20371.6,-27436.6,93750,-24972.6,-17665,-14359.5,-19688.5,-15866.3
-20375.1,-27439.2,93750,-24977.1,-17665.9,-14362.1,-19689.3,-15864.7
-20378.7,-27442.3,93750,-24984.8,-17669.2,-14366.8,-19692.8,-15865
-20384.8,-27445.7,93750,-24991.3,-17674.7,-14372.3,-19698.6,-15866.4
-20386.2,-27450.3,93750,-24990.8,-17676.6,-14372.6,-19700.2,-15867.3
-20387.9,-27450.9,93750,-24983.8,-17676.7,-14372.4,-19700.1,-15867.3
-20384.6,-27446.8,93750,-24975.8,-17673.4,-14368.9,-19696.8,-15866
-20374.9,-27441.4,93750,-24971.6,-17669.6,-14363.5,-19693.1,-15863.1
-20371.1,-27441.1,93750,-24970,-17665.7,-14360.1,-19689.2,-15860.6
-20374.1,-27440.6,93750,-24967.1,-17666.7,-14361.8,-19690.3,-15860.8
-20377.8,-27440.2,93750,-24970.4,-17672,-14365.9,-19695.4,-15863.4
-20382.6,-27447.1,93750,-24981.7,-17676.3,-14370.5,-19699.6,-15865.9
-20383,-27453.5,93750,-24986.6,-17679.3,-14373.1,-19702.5,-15866.5
-20384.6,-27452.6,93750,-24985.1,-17680.8,-14373.8,-19704.3,-15863.8
-20383.9,-27446.9,93750,-24985.1,-17678.2,-14371.2,-19701.7,-15851.8
-20375.4,-27439.8,93750,-24977.7,-17674.2,-14365.6,-19697.6,-15848
-20375.3,-27435.8,93750,-24967.4,-17670.2,-14360.9,-19693.9,-15848
-20372.6,-27437.6,93750,-24966.6,-17668.2,-14359.1,-19691.9,-15849.7
-20372.2,-27440.4,93750,-24968.1,-17671.6,-14362.7,-19695.4,-15856
-20381,-27438.4,93750,-24969.5,-17677.2,-14368.4,-19700.7,-15860.2
-20386.9,-27446,93750,-24974.5,-17681,-14372.5,-19704.6,-15862.4
-20388.5,-27448.2,93750,-24977.9,-17683,-14374.5,-19706.6,-15863
-20384.3,-27441,93750,-24979.5,-17679.5,-14371.7,-19703.1,-15856.5
-20375.9,-27431.4,93750,-24978,-17674.6,-14365.4,-19698.2,-15851
-20369.1,-27423.6,93750,-24974.8,-17670,-14359.9,-19693.3,-15849.7
-20366.9,-27427.6,93750,-24966.5,-17665.8,-14356.6,-19689.1,-15848.9
-20369.4,-27438.5,93750,-24964,-17667.7,-14359.4,-19691.2,-15852.8
-20371.9,-27442.7,93750,-24964.7,-17672.4,-14363.4,-19695.6,-15856.1
-20384.7,-27443.6,93750,-24967.8,-17677.2,-14367.2,-19700.6,-15858
-20391.5,-27448.6,93750,-24975.6,-17678,-14367.3,-19701.1,-15859.9
-20386.7,-27445.5,93750,-24974.1,-17679.3,-14367.9,-19702.5,-15867.3
-20380.1,-27443.6,93750,-24971.1,-17680.4,-14369.5,-19704.1,-15871.4
-20375.9,-27439.9,93750,-24968.4,-17675.4,-14365.3,-19699,-15868.9
-20371.9,-27437,93750,-24966.7,-17670,-14360.5,-19693.3,-15865.1
-20368.6,-27437,93750,-24965.8,-17668.5,-14361,-19691.8,-15862.9
-20373.2,-27438.5,93750,-24966.5,-17671.9,-14366.5,-19695.2,-15862.9
-20379.7,-27442.3,93750,-24969.5,-17675.6,-14370.2,-19699,-15863.5
-20384.4,-27449.9,93750,-24978.2,-17680,-14376.3,-19703.4,-15865.7
-20384,-27451.6,93750,-24978.2,-17681.3,-14378.3,-19704.6,-15867.3
-20382.3,-27451.4,93750,-24973.1,-17680.7,-14375.5,-19704.1,-15866.6
-20376.5,-27447.3,93750,-24971.1,-17677.2,-14371.1,-19700.7,-15864.9
-20373.8,-27439.1,93750,-24964.9,-17673.2,-14365,-19696.6,-15862.4
-20370.8,-27430.6,93750,-24961.6,-17672,-14362.3,-19695.3,-15862
-20369.7,-27435.6,93750,-24966.9,-17670.8,-14363,-19694.3,-15862
-20375.5,-27444.7,93750,-24970.6,-17671.1,-14365.2,-19694.7,-15862
-20380.8,-27459.2,93750,-24975.1,-17673.7,-14369.8,-19697.5,-15859.9
-20386.8,-27463,93750,-24978,-17678,-14375.5,-19701.6,-15850.5
-20384.7,-27459.9,93750,-24978.4,-17679.3,-14374.8,-19702.9,-15848.7
-20379.2,-27455.7,93750,-24975.2,-17677.9,-14371.4,-19701.4,-15850.2
-20373.2,-27451.3,93750,-24969.5,-17672.9,-14365.5,-19696.3,-15851.6
-20369,-27449.1,93750,-24963.6,-17667.8,-14358.9,-19691.3,-15854.2
-20367.7,-27446.9,93750,-24961.8,-17667.6,-14359.8,-19691.3,-15855.6
-20372,-27444,93750,-24964.4,-17671.4,-14364.6,-19695,-15856.7
-20379.5,-27451.1,93750,-24971.5,-17673.6,-14367.5,-19697.2,-15856.5
-20382,-27454.6,93750,-24978.8,-17674.7,-14368.4,-19698.4,-15850.6
-20381.2,-27455.9,93750,-24977.6,-17676.7,-14370.4,-19700.5,-15847.8
-20377.4,-27452.5,93750,-24975,-17676,-14368.7,-19699.7,-15848.2
-20372.2,-27449.3,93750,-24973.2,-17671.8,-14364.6,-19695.4,-15848.6
-20369.8,-27444.2,93750,-24969.8,-17668,-14362.2,-19691.5,-15850.8
-20369.2,-27441.2,93750,-24966.6,-17665.3,-14358.6,-19688.9,-15851.3
-20368.6,-27445.6,93750,-24964.9,-17665.9,-14360,-19689.8,-15851.2
-20372.5,-27448.2,93750,-24964.2,-17668.8,-14362.4,-19692.4,-15853.7
-20376.5,-27451.8,93750,-24968.1,-17673.8,-14367.3,-19697.1,-15863.5
-20381.1,-27456.2,93750,-24973.3,-17679.3,-14372.7,-19702.5,-15869
-20386.5,-27458.9,93750,-24970,-17679.8,-14373.1,-19702.9,-15868.5
-20385.3,-27453.2,93750,-24968.2,-17678.9,-14372.3,-19702.1,-15866.9
-20377.5,-27446.5,93750,-24967.5,-17674.5,-14367.4,-19697.9,-15864.5
-20372.6,-27441.5,93750,-24965.6,-17669.9,-14362.9,-19693.4,-15861.6
-20371.2,-27440.3,93750,-24962.3,-17668.8,-14362.3,-19692.5,-15860
-20374.3,-27447.5,93750,-24965.5,-17669.9,-14366.9,-19693.9,-15860.2
-20378.2,-27452.1,93750,-24973,-17671.2,-14367.7,-19694.8,-15859.4
-20383.1,-27455.7,93750,-24982.1,-17675.6,-14369.7,-19699,-15859.7
-20385,-27462.4,93750,-24983.5,-17678.1,-14372.8,-19701.8,-15860.6
-20383.5,-27462.4,93750,-24977.7,-17677,-14370.9,-19700.6,-15860.4
-20378,-27460.9,93750,-24972.8,-17675.2,-14367.9,-19698.7,-15860.8
-20376,-27457.5,93750,-24968.4,-17670.9,-14363.7,-19694.5,-15859.6
-20373.1,-27455.5,93750,-24968,-17666.3,-14359.3,-19689.9,-15857.3
-20374.9,-27450.7,93750,-24969.8,-17666.3,-14361.1,-19689.9,-15853.8
-20381.6,-27450.5,93750,-24974.4,-17668.7,-14366.2,-19692.3,-15844
-20386.6,-27452.2,93750,-24973.1,-17673.1,-14370.7,-19696.5,-15844.2
-20387,-27461.9,93750,-24975.1,-17676.4,-14373,-19700,-15848
-20385.9,-27466.2,93750,-24974.5,-17676.9,-14372.9,-19700.3,-15851.6
-20385.4,-27461.2,93750,-24968.4,-17676.1,-14371.8,-19699.7,-15856.8
-20380.4,-27452.2,93750,-24963,-17674.1,-14368.9,-19697.5,-15858.4
-20371.9,-27447,93750,-24964.9,-17669.2,-14363,-19692.6,-15856.9
-20372,-27445.2,93750,-24964.5,-17666,-14361.4,-19689.7,-15855.1
-20375.1,-27443.7,93750,-24964.2,-17666.2,-14362.3,-19689.8,-15849.2
-20372.7,-27447.1,93750,-24969,-17667.1,-14363.6,-19690.4,-15846.2
-20376.6,-27449.3,93750,-24978.5,-17670.8,-14368,-19694.2,-15848.2
-20380.6,-27449.7,93750,-24978.6,-17675.3,-14372.1,-19698.9,-15851.8
-20384.8,-27445.2,93750,-24971.3,-17677.9,-14374.9,-19701.2,-15857.1
-20383.6,-27441.1,93750,-24966.4,-17676.6,-14372.4,-19700.1,-15859.4
-20374.9,-27447.2,93750,-24964.6,-17669.8,-14363.7,-19693.3,-15857.2
-20368,-27450.1,93750,-24961.6,-17663.6,-14357,-19687.2,-15854.7
-20367.2,-27447.6,93750,-24961.8,-17664.5,-14358.3,-19688.1,-15861.1
-20371.7,-27446.7,93750,-24966.5,-17668.8,-14363.8,-19692.3,-15865.6
-20376.6,-27448.8,93750,-24970.9,-17674.4,-14370.1,-19697.9,-15866.1
-20380.5,-27456.4,93750,-24974.7,-17678.9,-14374.3,-19702.2,-15866.2
-20380.3,-27457.9,93750,-24977.9,-17681.3,-14375.6,-19704.8,-15865.9
-20381.2,-27451.6,93750,-24979.8,-17680,-14373,-19703.1,-15864.9
-20377.8,-27444,93750,-24974.8,-17677.2,-14370,-19700.3,-15863.3
-20377.2,-27438.6,93750,-24968.5,-17674.4,-14367.8,-19697.6,-15861.5
-20375.7,-27437.1,93750,-24967.6,-17670.9,-14365.2,-19694.2,-15859.6
-20375.7,-27434.7,93750,-24969.8,-17672.2,-14366.3,-19695.7,-15858.5
-20378.2,-27438.2,93750,-24973.8,-17675.5,-14369.8,-19698.8,-15859.7
-20378.3,-27447.4,93750,-24976.2,-17679.8,-14374,-19703.3,-15861.9
-20379.9,-27453.1,93750,-24977,-17684,-14377.4,-19707.6,-15865
-20382.2,-27456.3,93750,-24973.8,-17683.4,-14376,-19707,-15865.5
-20381.2,-27453.5,93750,-24967.6,-17682.7,-14375.5,-19706.5,-15865.5
-20376.8,-27445.6,93750,-24963.7,-17678.4,-14370.4,-19701.8,-15861
-20374.3,-27441.3,93750,-24961.9,-17673.9,-14366.5,-19697.2,-15848.6
-20370.4,-27442.7,93750,-24962.7,-17671.3,-14364.3,-19694.9,-15845.8
-20371.6,-27448.6,93750,-24965.4,-17672.6,-14366.3,-19696.1,-15847.9
-20378.9,-27446.6,93750,-24964,-17678.1,-14372,-19701.2,-15852.8
-20382.7,-27449,93750,-24964.4,-17683.4,-14376.8,-19706.6,-15860.6
-20378.7,-27456.4,93750,-24973.6,-17683.4,-14376.8,-19706.8,-15863.6
-20374.8,-27453.2,93750,-24978.6,-17679.4,-14372.9,-19703,-15863.1
-20373.5,-27448.2,93750,-24980.1,-17675.2,-14368.8,-19698.8,-15860.4
-20367.8,-27441.8,93750,-24975.2,-17668.9,-14362.1,-19692.2,-15851.4
-20363.5,-27435.9,93750,-24965,-17666.3,-14359.7,-19689.9,-15846.1
-20366.1,-27438.8,93750,-24963.9,-17667.4,-14360.9,-19690.9,-15847
-20372.3,-27442,93750,-24966,-17670.2,-14364.4,-19693.5,-15849.6
-20376.9,-27449,93750,-24970,-17677.3,-14372.9,-19700.6,-15856.3
-20379.1,-27454.4,93750,-24973.9,-17681.8,-14375.7,-19705.2,-15861.4
-20378.9,-27454.6,93750,-24975.4,-17680.7,-14373.1,-19704.1,-15862.1
-20373.2,-27451.5,93750,-24972.7,-17678.3,-14369.2,-19701.5,-15862.6
-20370.7,-27446.6,93750,-24965.7,-17673.9,-14362.4,-19697.1,-15867.4
-20369.4,-27446.9,93750,-24962.5,-17669.7,-14357.9,-19693,-15867.5
-20369.3,-27449.7,93750,-24961.9,-17668.6,-14357.4,-19691.8,-15864.3
-20372.2,-27450.8,93750,-24969.8,-17669.3,-14360,-19692.5,-15862.9
-20378.9,-27451.8,93750,-24975.8,-17673.3,-14365.9,-19696.8,-15863.7
-20385,-27456.2,93750,-24982.8,-17678.7,-14371.4,-19702,-15865.1
-20388.7,-27457.9,93750,-24984.1,-17680.6,-14372.2,-19703.8,-15865.2
-20392.1,-27458.5,93750,-24983.6,-17678.8,-14370.6,-19701.9,-15864.3
-20393.8,-27456,93750,-24980.6,-17672.8,-14363.3,-19695.9,-15860.8
-20387.8,-27449.5,93750,-24974.5,-17668.7,-14357.2,-19691.7,-15857.1
-20380.5,-27442.5,93750,-24970.3,-17668.5,-14358.3,-19691.9,-15856.2
-20377.2,-27443.4,93750,-24971.1,-17671.6,-14361.9,-19695.3,-15857.1
-20376.7,-27446.5,93750,-24972.8,-17674.9,-14365.1,-19698.5,-15859.7
-20382.3,-27451.1,93750,-24977.9,-17680.1,-14372.3,-19703.5,-15863.3
-20389.9,-27455.1,93750,-24982.9,-17683.7,-14375.5,-19706.9,-15865
-20390.4,-27455.7,93750,-24984.7,-17683.2,-14375.3,-19706.5,-15862.6
-20388.2,-27452.3,93750,-24985,-17679.2,-14372.1,-19702.6,-15851.5
-20382.9,-27444.2,93750,-24978.5,-17674.2,-14365.2,-19697.4,-15847.8
-20380.7,-27440.9,93750,-24971.1,-17669.8,-14360,-19693.1,-15847.6
-20381.1,-27438.9,93750,-24963.6,-17669.5,-14360.1,-19693,-15849.7
-20383.9,-27439.6,93750,-24961,-17672.7,-14363.3,-19696.3,-15856.1
-20389.4,-27443.3,93750,-24965,-17676.2,-14366.9,-19699.5,-15859.6
-20394.9,-27450.4,93750,-24973.5,-17680.2,-14370.7,-19703.8,-15861.7
-20398.2,-27455.7,93750,-24979.2,-17681.8,-14371.6,-19705.2,-15861.7
-20397,-27444.5,93750,-24976.5,-17679.1,-14368.7,-19702.6,-15854.6
-20389.5,-27442.2,93750,-24971.3,-17674.2,-14361.8,-19697.6,-15848.8
-20383.8,-27445.7,93750,-24962.7,-17668.5,-14354.9,-19692,-15846.1
-20381.4,-27441.2,93750,-24958.1,-17665.1,-14352,-19688.4,-15845.2
-20386.6,-27441.1,93750,-24961.4,-17667.6,-14357.6,-19690.8,-15850
-20387.7,-27437.2,93750,-24967.5,-17672.9,-14362.9,-19695.9,-15854.5
-20391,-27439.5,93750,-24973.9,-17678.3,-14368.3,-19701.6,-15857.3
-20396.8,-27442.3,93750,-24972.1,-17682.6,-14371,-19705.7,-15860.9
-20395,-27447.1,93750,-24966.9,-17683.3,-14369,-19706.4,-15868.5
-20394.9,-27447.1,93750,-24963.6,-17681.3,-14366.4,-19704.4,-15870.2
-20393.1,-27437.7,93750,-24960.9,-17678.3,-14363.7,-19701.5,-15867.1
-20387.5,-27432.4,93750,-24959.5,-17674.5,-14360.8,-19697.9,-15864.1
-20386.4,-27431.8,93750,-24960,-17672.8,-14359.7,-19696.1,-15862.3
-20392.4,-27435.2,93750,-24964.6,-17673.8,-14361.7,-19697.1,-15862
-20396.9,-27436,93750,-24969.3,-17677.1,-14365.9,-19700.6,-15862.7
-20401.8,-27442.3,93750,-24974.9,-17683.1,-14375,-19706.3,-15865.3
-20402.7,-27448.4,93750,-24978.6,-17683.4,-14376.3,-19706.4,-15866
-20398.8,-27450.8,93750,-24976.2,-17680.8,-14371.5,-19704,-15863.4
-20396,-27454,93750,-24971,-17677.3,-14368.1,-19700.8,-15861.7
-20389,-27443.6,93750,-24963.6,-17674.4,-14364.8,-19697.8,-15861.3
-20385.6,-27438.8,93750,-24962.7,-17671.3,-14360,-19694.7,-15860.7
-20385.5,-27443.7,93750,-24969.1,-17669,-14358.6,-19692.4,-15860
-20387.4,-27448.7,93750,-24971.3,-17672.2,-14362.5,-19695.6,-15860.1
-20393.4,-27450.1,93750,-24971.7,-17679.9,-14371.3,-19703.4,-15859.4
-20401.4,-27449,93750,-24975,-17684.6,-14375.9,-19707.6,-15851.1
-20402.7,-27444.8,93750,-24979.6,-17683.2,-14374.1,-19706.6,-15849.7
-20395.8,-27441.7,93750,-24982.6,-17679.7,-14369.3,-19703.1,-15850.3
-20392.9,-27435.5,93750,-24975.6,-17676.8,-14365.4,-19699.9,-15851.4
-20384.7,-27431.6,93750,-24966.8,-17673.1,-14361.3,-19696.5,-15855.3
-20381.3,-27436.3,93750,-24966.4,-17670.1,-14358.9,-19693.5,-15855.8
-20383.9,-27439.4,93750,-24968.7,-17671.7,-14361.6,-19694.9,-15856.1
-20392.6,-27441.4,93750,-24974.9,-17676.6,-14367.2,-19699.8,-15857.1
-20399.2,-27445.5,93750,-24984.1,-17676.2,-14366.8,-19699.6,-15851.9
-20397.5,-27448.1,93750,-24985.8,-17675.9,-14367,-19699.3,-15848.5
-20395.6,-27447.1,93750,-24976.2,-17675.8,-14366.3,-19699.2,-15849.7
-20391.7,-27441.2,93750,-24968.5,-17674.2,-14364.4,-19697.6,-15851.3
-20386.4,-27435.4,93750,-24964.3,-17672,-14362.2,-19695.1,-15854.3
-20384.9,-27434.2,93750,-24961.2,-17668.1,-14358,-19691.1,-15855.3
-20387.5,-27437.5,93750,-24961.9,-17668.1,-14357.7,-19691.3,-15855
-20388.9,-27442.8,93750,-24966.9,-17668.9,-14359.3,-19692.3,-15856
-20390.7,-27446.1,93750,-24970.9,-17673.7,-14363.4,-19697,-15864.7
-20399.3,-27451.3,93750,-24977.9,-17678.4,-14368.6,-19701.9,-15869.9
-20402.6,-27448.4,93750,-24981.1,-17679.9,-14370.1,-19703.2,-15869.7
-20397.2,-27442.4,93750,-24982.6,-17677.1,-14367.4,-19700.4,-15867.4
-20394.8,-27440.8,93750,-24978.5,-17672.9,-14362.7,-19696.1,-15864.1
-20392.7,-27440.7,93750,-24971.1,-17668.3,-14358.2,-19691.6,-15860.9
-20394.8,-27438.8,93750,-24964.1,-17667.7,-14358.8,-19691.1,-15858.9
-20396.5,-27433.4,93750,-24971,-17672,-14365.2,-19695.3,-15859.8
-20397,-27435.7,93750,-24983.1,-17673.2,-14367.8,-19696.5,-15860.7
-20399.2,-27442.8,93750,-24986.9,-17677.9,-14371,-19701,-15861.2
-20400.3,-27452.6,93750,-24983.8,-17681.8,-14374,-19704.9,-15862.5
-20400.6,-27451.3,93750,-24977.3,-17680.4,-14371.2,-19703.7,-15862.5
-20395.9,-27447.2,93750,-24975,-17679.2,-14368.1,-19702.5,-15862.2
-20393.4,-27438.3,93750,-24972.6,-17676.1,-14365.2,-19699.4,-15861.6
-20391.6,-27430.6,93750,-24968.7,-17672.8,-14361.8,-19695.8,-15859.7
-20394.9,-27431,93750,-24969.5,-17673.2,-14363.5,-19696.5,-15856.4
-20396.6,-27433.3,93750,-24973.2,-17676.1,-14367.1,-19699.5,-15846.5
-20396.3,-27438,93750,-24977.1,-17679.7,-14370.4,-19703.3,-15845.8
-20397.5,-27442.1,93750,-24979.4,-17684.9,-14374.6,-19708.3,-15850.1
-20400.8,-27439.6,93750,-24976.2,-17686.7,-14374.6,-19709.7,-15853.5
-20397.9,-27437.4,93750,-24969.3,-17687.3,-14372.4,-19710.2,-15858.1
-20392.3,-27436.4,93750,-24961.9,-17684.9,-14368.9,-19708.2,-15859.3
-20386.7,-27431.3,93750,-24957.9,-17680.3,-14363.8,-19703.6,-15857.3
-20387.9,-27425.7,93750,-24959.7,-17678.3,-14363,-19701.4,-15855.4
-20390.4,-27425.9,93750,-24965.4,-17675,-14362.4,-19698.2,-15849
-20389.4,-27427.9,93750,-24969.3,-17676.8,-14365.4,-19700.3,-15846.1
-20393.8,-27429,93750,-24969.1,-17684.2,-14373.4,-19707.7,-15850.2
-20396.2,-27433.5,93750,-24968.5,-17686.7,-14375.3,-19710,-15854.2
-20395.5,-27440.9,93750,-24966,-17685.8,-14373.6,-19709,-15858
-20393.4,-27438.6,93750,-24963.7,-17684.1,-14370.4,-19707.2,-15859.6
-20385.7,-27433.4,93750,-24964.2,-17679.1,-14364,-19702.2,-15858.3
-20377.7,-27431,93750,-24964.6,-17673.2,-14357.5,-19696.4,-15856.9
-20381.1,-27430.1,93750,-24962.3,-17671.6,-14357.1,-19695.1,-15862.5
-20390.7,-27429.7,93750,-24960.9,-17677,-14364.2,-19700.5,-15867
-20399.3,-27430,93750,-24962.9,-17683.2,-14371.3,-19706.6,-15868.3
-20399.5,-27438.2,93750,-24971.5,-17686.7,-14374.8,-19710.1,-15869
-20398.4,-27443.6,93750,-24975.2,-17687.8,-14375.4,-19711,-15869
-20400.8,-27443.7,93750,-24971.1,-17685.7,-14371.6,-19708.6,-15867.6
-20394.1,-27442.9,93750,-24966.2,-17682.7,-14367.8,-19705.7,-15865.6
-20386.6,-27435.5,93750,-24966.3,-17679.9,-14365.4,-19703,-15863.5
-20384.2,-27427.1,93750,-24972.2,-17675.6,-14361.2,-19699,-15860.6
-20389.3,-27424.9,93750,-24973,-17676.9,-14362.5,-19700.2,-15858.9
-20394.1,-27434.1,93750,-24966.8,-17681.6,-14368.9,-19704.9,-15860.6
-20400.2,-27443.3,93750,-24964,-17685.8,-14372.4,-19709,-15862.7
-20402.4,-27444.2,93750,-24968.2,-17689.8,-14375.2,-19713.1,-15865.7
-20400.3,-27446.4,93750,-24973.3,-17689.1,-14374.2,-19712.3,-15866.4
-20397.5,-27447.6,93750,-24974.1,-17684.8,-14369.3,-19708,-15864.6
-20393.5,-27440,93750,-24967.5,-17680.9,-14365.4,-19704.3,-15859.3
-20392.9,-27433,93750,-24964.1,-17676.7,-14362.4,-19699.9,-15846.2
-20389.6,-27428.7,93750,-24961.4,-17676.6,-14363.4,-19699.6,-15844.1
-20392.6,-27435,93750,-24961.4,-17679.2,-14366.1,-19702.4,-15846.4
-20394.2,-27437.3,93750,-24967.1,-17681.7,-14369.1,-19704.9,-15849.6
-20395.7,-27438.4,93750,-24973.6,-17686.1,-14373.3,-19709.5,-15856.8
-20395.9,-27439.2,93750,-24980.7,-17686.9,-14373.3,-19710.3,-15859.7
-20395.7,-27439.1,93750,-24977.2,-17685,-14371.5,-19708.5,-15859.2
-20394.9,-27439.3,93750,-24970,-17681.5,-14367.5,-19704.6,-15857.5
-20389.2,-27430.5,93750,-24966.6,-17673.9,-14360.9,-19697.1,-15849.5
-20383.1,-27420.2,93750,-24964.9,-17671,-14358.9,-19694.2,-15844.9
-20384.2,-27419.3,93750,-24967.5,-17671.7,-14360.6,-19694.9,-15846.6
-20388.9,-27425.7,93750,-24966.6,-17674.3,-14363.5,-19697.6,-15849.8
-20397.1,-27434,93750,-24967.4,-17680.9,-14371.3,-19704.3,-15856.7
-20400.9,-27435.4,93750,-24969.9,-17686.8,-14376.9,-19710.4,-15862.3
-20403.1,-27427.8,93750,-24965.2,-17689.4,-14377.8,-19712.6,-15864.7
-20397.3,-27428.8,93750,-24966.8,-17684.3,-14369.8,-19707.6,-15864.6
-20388.8,-27427.8,93750,-24965.5,-17678.6,-14362.6,-19701.9,-15869.2
-20387.7,-27426.7,93750,-24959.5,-17675.6,-14360.7,-19698.8,-15870.2
-20388.7,-27431.1,93750,-24960,-17673.8,-14359.8,-19696.8,-15867
-20389.5,-27432.4,93750,-24965.1,-17675,-14362.9,-19698.2,-15865.7
-20392.5,-27431.4,93750,-24969.1,-17680.7,-14371.4,-19703.9,-15867
-20394.6,-27435.6,93750,-24975.2,-17687.2,-14378,-19710.6,-15869.2
-20400.9,-27437,93750,-24977.5,-17687.5,-14376.9,-19710.7,-15869
-20405.6,-27434.6,93750,-24977.6,-17684.5,-14375.3,-19707.9,-15868.2
-20395.8,-27432.4,93750,-24976.6,-17679.8,-14371.1,-19703,-15866.5
-20389,-27428.3,93750,-24972.4,-17675.3,-14365.3,-19698.5,-15863.3
-20387.9,-27425.8,93750,-24968,-17672.4,-14362.7,-19696.1,-15861.5
-20390.8,-27429.9,93750,-24964.7,-17673.1,-14363.1,-19696.9,-15861.2
-20393.8,-27432.1,93750,-24970.7,-17676.9,-14365.9,-19700.2,-15863.3
-20397.3,-27434.7,93750,-24978.6,-17682.3,-14372.4,-19705.6,-15866.1
-20399.9,-27439.3,93750,-24980.4,-17687.2,-14376.6,-19710.6,-15867.9
-20401.1,-27439.4,93750,-24983.5,-17686.5,-14375.3,-19709.7,-15865.2
-20399.7,-27432.6,93750,-24981.6,-17684.6,-14374.1,-19707.8,-15854.1
-20392,-27428,93750,-24974.8,-17680.6,-14368.4,-19703.7,-15850.5
-20387.4,-27424.3,93750,-24967.1,-17675.7,-14363,-19699.1,-15850.3
-20388.5,-27424.5,93750,-24962.7,-17673.4,-14360.5,-19696.9,-15851.4
-20391.8,-27429.8,93750,-24964.8,-17674.8,-14361.2,-19698.1,-15856.8
-20395.7,-27439.1,93750,-24974.6,-17676.2,-14363.1,-19699.3,-15859.5
-20400.5,-27448.3,93750,-24983.2,-17678.1,-14366.2,-19701.3,-15860.2
-20402.2,-27450.7,93750,-24985.8,-17682.1,-14371,-19704.9,-15860.9
-20398.3,-27439.4,93750,-24982.6,-17681.2,-14369.8,-19704.1,-15855.1
-20392.1,-27434.2,93750,-24974.3,-17676.8,-14364.7,-19699.9,-15850.1
-20382.1,-27433.8,93750,-24968.7,-17671.9,-14359.8,-19695,-15848.6
-20379.8,-27428.1,93750,-24964.3,-17668.6,-14357.7,-19691.8,-15849.1
-20385,-27426.6,93750,-24964.5,-17670.9,-14362.4,-19694,-15853.8
-20389.1,-27432.5,93750,-24968.3,-17675,-14366.3,-19698.3,-15858
-20394.3,-27440.3,93750,-24973.8,-17679.1,-14369,-19702.2,-15859.8
-20398.2,-27440.5,93750,-24974,-17683.5,-14371.4,-19706.8,-15862.6
-20391.6,-27439.8,93750,-24974.8,-17686.1,-14371.6,-19709.4,-15871.1
-20384.2,-27437.8,93750,-24977.5,-17685.3,-14370.5,-19708.2,-15873.9
-20381.5,-27432.5,93750,-24972.8,-17680.7,-14366.4,-19703.8,-15870.7
-20379.8,-27430.3,93750,-24967.2,-17676,-14361.4,-19699,-15866.5
-20376.2,-27434.5,93750,-24964.4,-17675,-14361.7,-19697.9,-15864.5
-20373.3,-27440.7,93750,-24965.9,-17677.5,-14366.2,-19700.6,-15864.8
-20380.3,-27442.1,93750,-24972.1,-17680.7,-14369.7,-19703.6,-15865.7
-20388.3,-27447,93750,-24981.2,-17685.3,-14375.6,-19708.5,-15867.2
-20385.5,-27447.1,93750,-24983.6,-17688.3,-14379.6,-19711.6,-15869.5
-20383.2,-27445.6,93750,-24979.3,-17687.7,-14377.1,-19711,-15868.9
-20381.6,-27442.1,93750,-24973.7,-17683.3,-14371.6,-19706.6,-15866.7
-20372.4,-27439.9,93750,-24971.2,-17678.4,-14366.9,-19701.5,-15864.7
-20363.5,-27443.8,93750,-24973,-17674.4,-14361.5,-19697.4,-15863.3
-20367.3,-27449.6,93750,-24977.2,-17673.2,-14362,-19696.4,-15862.8
-20378.3,-27451.6,93750,-24979.8,-17674.8,-14365.1,-19698,-15863.2
-20382.3,-27454.1,93750,-24982.6,-17680,-14371.7,-19703.2,-15862.6
-20386.4,-27454.4,93750,-24984.8,-17685.3,-14378.5,-19708.4,-15854.4
-20384.6,-27452.7,93750,-24984.6,-17686.6,-14377.5,-19709.8,-15853.6
-20380.3,-27449.9,93750,-24982.3,-17683.4,-14371.5,-19706.7,-15853.8
-20375,-27446.4,93750,-24977,-17678.3,-14365.4,-19701.6,-15854.1
-20368,-27444.2,93750,-24972.5,-17673.7,-14359.6,-19697,-15856.9
-20367.1,-27441.2,93750,-24969.5,-17673.5,-14360.6,-19696.7,-15858.3
-20368.5,-27446.3,93750,-24971.6,-17674.9,-14363.5,-19697.6,-15859.1
-20374.8,-27455,93750,-24979.8,-17676.8,-14366.2,-19699.7,-15859
-20382.6,-27453.2,93750,-24986.1,-17679,-14369.6,-19701.9,-15854.4
-20381.5,-27450.7,93750,-24984.2,-17680.9,-14370.9,-19704,-15852
-20375.1,-27450.4,93750,-24984.9,-17679.7,-14368.6,-19702.8,-15852.3
-20370.7,-27449.1,93750,-24981.6,-17676,-14364.1,-19698.9,-15852.3
-20365.3,-27448,93750,-24975.6,-17673,-14361.4,-19696.1,-15854.3
-20365.5,-27443.2,93750,-24972,-17671.8,-14359.9,-19695,-15855.1
-20369.6,-27442.5,93750,-24972.1,-17671.5,-14360.6,-19694.6,-15855.5
-20371,-27447.4,93750,-24971.7,-17673.6,-14363.7,-19696.9,-15857.9
-20372.4,-27456.3,93750,-24972,-17677.7,-14367.1,-19701,-15866.4
-20376.8,-27460.1,93750,-24979.6,-17683.1,-14372.6,-19706.3,-15871.4
-20378,-27454.6,93750,-24983.4,-17685.5,-14374,-19708.5,-15870.3
-20374.2,-27448.2,93750,-24983.2,-17684.2,-14372.2,-19707.1,-15868.1
-20368.5,-27445.6,93750,-24976.2,-17681.7,-14369.4,-19704.5,-15865.8
-20369,-27444.8,93750,-24970.1,-17677.2,-14364.3,-19699.8,-15862.7
-20368.2,-27444.4,93750,-24967.6,-17673.9,-14360.2,-19697.1,-15860.1
-20370,-27448.9,93750,-24968.5,-17677.2,-14365.7,-19700.5,-15861.3
-20374.6,-27453.8,93750,-24974.2,-17680,-14369.6,-19703,-15862.8
-20378.6,-27459.8,93750,-24979.6,-17684.6,-14372.9,-19707.8,-15863.3
-20382.6,-27460.2,93750,-24981,-17687.9,-14376.4,-19711,-15864.7
-20381.3,-27453,93750,-24978.3,-17687.7,-14374.6,-19710.5,-15865.6
-20377.7,-27452.7,93750,-24977.9,-17682.8,-14367.6,-19705.8,-15865.1
-20372.5,-27452.8,93750,-24981.1,-17677.2,-14362.2,-19700.3,-15862.9
-20367.5,-27448.6,93750,-24977.6,-17674,-14360.2,-19697.2,-15861.2
-20370.4,-27449.3,93750,-24976.4,-17674.1,-14362.8,-19697.3,-15858
-20376.4,-27449.5,93750,-24978.7,-17677.2,-14368.6,-19700.5,-15848.5
-20380.3,-27452.7,93750,-24982.5,-17679.5,-14370.9,-19702.6,-15848.2
-20380,-27460.2,93750,-24989,-17681.6,-14372.6,-19704.8,-15851.4
-20381.3,-27457.7,93750,-24984.9,-17684.1,-14373.9,-19707.1,-15855.3
-20379.1,-27460.7,93750,-24977.3,-17682.6,-14370,-19705.5,-15860.3
-20373.3,-27457.8,93750,-24979,-17676.6,-14363.7,-19699.5,-15859.8
-20370.5,-27448,93750,-24977.2,-17673.2,-14361.6,-19696.1,-15857.8
-20368.9,-27444.8,93750,-24975.6,-17672,-14360.9,-19695.1,-15856.2
-20370.4,-27449.5,93750,-24979.7,-17668.3,-14358.7,-19691.3,-15849.7
-20368.7,-27461.7,93750,-24986,-17665.5,-14357.5,-19688.9,-15845.1
-20372.9,-27464.4,93750,-24988.3,-17671.3,-14365.1,-19694.5,-15847.8
-20377.4,-27461.8,93750,-24989.9,-17675.7,-14370,-19698.9,-15851.7
-20379,-27458.8,93750,-24988.2,-17677,-14371.2,-19700.4,-15856.3
-20376.5,-27456.6,93750,-24984,-17675.8,-14368.9,-19699,-15858.4
-20367.2,-27460.8,93750,-24977.5,-17669.9,-14361.3,-19692.9,-15856.4
-20358.4,-27464.3,93750,-24972.4,-17665.6,-14356.4,-19688.5,-15855
-20361.8,-27459,93750,-24971.7,-17666.8,-14357.3,-19689.7,-15861.3
-20373.8,-27454.7,93750,-24973.3,-17671.3,-14362,-19694.2,-15865.3
-20380.7,-27454.5,93750,-24977.5,-17675.8,-14367.7,-19698.8,-15866
-20382.9,-27457.1,93750,-24980.6,-17682.3,-14373.4,-19705.4,-15867.1
-20381.6,-27459.9,93750,-24982.1,-17684.7,-14374.8,-19707.9,-15868.1
-20379.4,-27454.6,93750,-24984.3,-17682.6,-14371.3,-19705.8,-15867.2
-20373.1,-27449.2,93750,-24990.3,-17678,-14364.6,-19700.9,-15864
-20369.8,-27444.9,93750,-24988.3,-17673.9,-14361.6,-19696.9,-15861.2
-20367.4,-27442.8,93750,-24975.8,-17672.8,-14361.8,-19695.9,-15860
-20368.1,-27448.6,93750,-24972.3,-17675.6,-14363,-19698.6,-15858.7
-20369.1,-27455.1,93750,-24977.4,-17679,-14366.8,-19702.4,-15858.8
-20375.4,-27456.9,93750,-24981.9,-17683.7,-14371,-19706.8,-15860.9
-20378.4,-27459.8,93750,-24986.2,-17688.4,-14374.5,-19711.5,-15864
-20377,-27459.6,93750,-24987.9,-17688.3,-14373.6,-19711.5,-15865.2
-20375.1,-27457.5,93750,-24984.6,-17683.9,-14368.1,-19707.1,-15863.7
-20370.2,-27454.4,93750,-24978.8,-17680.4,-14365.1,-19703.5,-15858.9
-20366.9,-27454.7,93750,-24977,-17674.9,-14360.9,-19698.2,-15846.5
-20365.8,-27456.7,93750,-24976.3,-17670.7,-14357.4,-19694,-15843.2
-20368.2,-27458.3,93750,-24978.5,-17672.7,-14360.6,-19695.8,-15845.7
-20372.3,-27460.9,93750,-24981,-17677.3,-14366,-19700.6,-15850
-20376.5,-27467.8,93750,-24983.3,-17680.3,-14369.2,-19703.8,-15856.9
-20379.2,-27465.7,93750,-24985,-17683.5,-14371.9,-19706.6,-15860.8
-20376.2,-27460.8,93750,-24987.6,-17682.4,-14368.7,-19705.5,-15860.6
-20375.3,-27458,93750,-24991.9,-17676.9,-14363.1,-19700.1,-15857.7
-20372.4,-27449,93750,-24986.7,-17669.9,-14357.4,-19693.2,-15849.5
-20362.6,-27445.4,93750,-24980.4,-17667.1,-14354.6,-19690.3,-15844.3
-20363,-27446.8,93750,-24984,-17667,-14354.9,-19690,-15844.6
-20363.1,-27451.7,93750,-24985.6,-17670.4,-14359.2,-19693.2,-15846.8
-20369.4,-27458.7,93750,-24984.6,-17678.5,-14367.8,-19701.5,-15853.4
-20375.5,-27464.9,93750,-24984.1,-17683,-14370.8,-19705.7,-15857.4
-20376,-27465.5,93750,-24983.6,-17682.7,-14369.9,-19705.5,-15858.2
-20368.5,-27458.4,93750,-24983.3,-17681.4,-14367.5,-19704.2,-15859.4
-20360.5,-27451.6,93750,-24978.4,-17677.6,-14361.4,-19700.4,-15865.5
-20362.9,-27447.7,93750,-24975,-17674,-14357.6,-19696.8,-15866.9
-20365,-27448,93750,-24974.5,-17673.6,-14358.9,-19696.5,-15864.8
-20368.7,-27449.5,93750,-24975.3,-17676.7,-14363,-19699.8,-15864
-20372.5,-27454.4,93750,-24979.5,-17680.1,-14367.5,-19703.2,-15864.4
-20377.5,-27459.1,93750,-24984.6,-17684.7,-14372.1,-19707.7,-15865.4
-20381,-27461.1,93750,-24986.6,-17688.1,-14374.6,-19711.1,-15866.9
-20382.7,-27458,93750,-24984.1,-17687.5,-14373.3,-19710.4,-15866.6
-20375.8,-27453.2,93750,-24984.6,-17682.2,-14368.5,-19705.3,-15864.4
-20369.3,-27443.8,93750,-24981.8,-17677.5,-14362.3,-19700.5,-15860.9
-20367.1,-27436.2,93750,-24977,-17677,-14361.7,-19699.8,-15859.7
-20366.4,-27436.1,93750,-24975,-17679.4,-14364.8,-19702.3,-15860.9
-20367.3,-27439.8,93750,-24975.8,-17684.7,-14370.6,-19707.7,-15864.4
-20372.8,-27442.5,93750,-24979.3,-17691.3,-14378.5,-19714.4,-15868.9
-20376.2,-27440.9,93750,-24982.2,-17695.6,-14382.7,-19718.8,-15871.6
-20379.1,-27440.1,93750,-24982.6,-17696.2,-14381.7,-19719.1,-15869.5
-20374.6,-27439.8,93750,-24980.5,-17693.8,-14379.4,-19716.7,-15858.2
-20363.9,-27431.3,93750,-24973.2,-17689.4,-14374.9,-19712.1,-15855.5
-20359.4,-27426.1,93750,-24969,-17684,-14368.8,-19706.5,-15855.9
-20359.4,-27424.6,93750,-24967.5,-17682.8,-14367.1,-19705.6,-15857.7
-20359.8,-27430.1,93750,-24965.8,-17685.8,-14369.7,-19708.7,-15864.2
-20364,-27436.5,93750,-24966.5,-17690.6,-14375.8,-19713.7,-15868.6
-20367.9,-27437.3,93750,-24975.8,-17694.4,-14380.2,-19717.1,-15870.4
-20373,-27433.3,93750,-24978.6,-17699.7,-14385.8,-19722.4,-15871.8
-20370.9,-27426.7,93750,-24974.1,-17697.1,-14383,-19720.3,-15866.3
-20362.9,-27423.4,93750,-24965.3,-17692.6,-14377.1,-19715.6,-15861.5
-20353.4,-27423.9,93750,-24962.8,-17685.8,-14370.2,-19708.7,-15859.4
-20350.8,-27418.7,93750,-24961.2,-17682.4,-14367.6,-19705.6,-15858.4
-20355.9,-27417.5,93750,-24962.3,-17685.8,-14372.2,-19708.9,-15863.5
-20361.3,-27421.3,93750,-24966.2,-17689.1,-14375.2,-19711.7,-15867.6
-20367.9,-27428,93750,-24972.8,-17691.6,-14378,-19714.4,-15869
-20370.1,-27428.1,93750,-24973.6,-17695.8,-14382.7,-19719.1,-15871.7
-20365.9,-27426.6,93750,-24970.9,-17699,-14383,-19722.2,-15879.6
-20362.7,-27429.8,93750,-24973,-17695.5,-14378.6,-19718.6,-15881.2
-20360.7,-27429.1,93750,-24972.6,-17689.9,-14373.6,-19713.1,-15876.9
-20359.3,-27419,93750,-24968.7,-17685.1,-14369.1,-19708.6,-15872.4
-20361.5,-27413.9,93750,-24961.4,-17685.6,-14371.3,-19708.7,-15871.1
-20365.5,-27420.7,93750,-24961.8,-17687.8,-14373.9,-19710.8,-15871
-20367.4,-27427.1,93750,-24963.6,-17693.9,-14379.2,-19716.9,-15872.4
-20370.2,-27431.9,93750,-24969.9,-17699.3,-14386.6,-19722.3,-15875.3
-20371.8,-27432.3,93750,-24975.3,-17699.9,-14387.4,-19722.9,-15876.3
-20369.3,-27430.4,93750,-24976.6,-17697.3,-14382.5,-19720.3,-15874.3
-20366.2,-27425.7,93750,-24977,-17692.8,-14378.6,-19715.9,-15872.7
-20357.7,-27423.8,93750,-24975.2,-17687.8,-14372.9,-19710.6,-15870.8
-20356.5,-27419.1,93750,-24970,-17684.6,-14370.1,-19707.7,-15870.5
-20361.8,-27422.4,93750,-24970,-17685.2,-14372.7,-19708.3,-15871.3
-20362.9,-27435,93750,-24976.4,-17685.2,-14373.1,-19708,-15870.8
-20368.6,-27448,93750,-24982.9,-17687.2,-14377.2,-19710.1,-15869.4
-20378.2,-27448.3,93750,-24985,-17690.3,-14382.7,-19713.6,-15861.2
-20375.9,-27441,93750,-24983.8,-17692.1,-14382.9,-19715.2,-15860.5
-20371,-27436.6,93750,-24983.5,-17691.2,-14379.6,-19713.9,-15862.3
-20364.5,-27432.8,93750,-24980.6,-17685.4,-14370.6,-19708.2,-15862.5
-20360.4,-27429.5,93750,-24972.7,-17681.7,-14365.9,-19704.6,-15865.4
-20359.4,-27430.5,93750,-24971.1,-17680.1,-14364.2,-19703.2,-15865.8
-20359.7,-27433,93750,-24976.7,-17682.1,-14367.9,-19705.2,-15866
-20368.3,-27433.6,93750,-24978.8,-17687.1,-14374.6,-19710,-15867.3
-20374.6,-27434.1,93750,-24982,-17688.8,-14375.9,-19711.7,-15862.5
-20376.1,-27434.2,93750,-24980.9,-17690.3,-14378.1,-19713.2,-15859.9
-20373.1,-27434.6,93750,-24978.1,-17689.2,-14376.9,-19712.2,-15860.6
-20365.9,-27434.3,93750,-24973,-17685.7,-14373,-19708.7,-15859.8
-20358.4,-27435.5,93750,-24969.3,-17682.5,-14369.3,-19705.5,-15861.9
-20355,-27431.5,93750,-24966.1,-17680.6,-14366.1,-19703.6,-15862.8
-20360.1,-27433,93750,-24968.6,-17678.3,-14365.3,-19701.3,-15862
-20364.7,-27435.3,93750,-24969.1,-17681,-14368.6,-19703.6,-15863.9
-20369,-27433.3,93750,-24968,-17687.9,-14375.4,-19710.6,-15873.4
-20373.5,-27442.8,93750,-24978.3,-17690.1,-14377.8,-19713.3,-15878.1
-20372,-27448.4,93750,-24987.6,-17690,-14376.4,-19712.8,-15876.3
-20371.3,-27447.4,93750,-24981.9,-17687.3,-14372.5,-19710.1,-15873.5
-20368.7,-27444.5,93750,-24974.5,-17683.4,-14368,-19706.3,-15870.9
-20361.5,-27442.1,93750,-24975.1,-17679.6,-14363.7,-19702.6,-15867.6
-20360.9,-27437.7,93750,-24974.6,-17678.8,-14363.6,-19701.9,-15865.6
-20368.8,-27439.3,93750,-24975,-17679.2,-14367.1,-19702.6,-15865.7
-20374.4,-27443.4,93750,-24977.9,-17682.5,-14371.9,-19705.7,-15867
-20377.2,-27447.2,93750,-24980.1,-17688.2,-14376.4,-19711.2,-15867.9
-20378,-27450.4,93750,-24977.3,-17693.2,-14379.8,-19716,-15869.1
-20376.4,-27452.6,93750,-24975.3,-17691.7,-14375.6,-19714.4,-15868.3
-20374.5,-27446.2,93750,-24976.1,-17689.3,-14373.1,-19712,-15868.4
-20368.5,-27437.8,93750,-24975.1,-17685.2,-14367.8,-19707.9,-15866.8
-20362.6,-27433.4,93750,-24977.7,-17680.8,-14363,-19703.7,-15864
-20368,-27434.7,93750,-24980.8,-17679.9,-14364.3,-19702.8,-15859.9
-20374.2,-27437.3,93750,-24982,-17681.2,-14368.8,-19704.1,-15849.2
-20375.6,-27441.8,93750,-24983.3,-17685.6,-14374.1,-19708.7,-15849.7
-20379.3,-27444.2,93750,-24988.2,-17689.2,-14376.3,-19712.4,-15853.3
-20379.4,-27444.4,93750,-24988.8,-17690.4,-14376.2,-19713.5,-15856.9
-20375.5,-27442.5,93750,-24982.1,-17690.1,-14373.5,-19713.2,-15862.4
-20371.1,-27440.1,93750,-24977.4,-17685.9,-14368.5,-19709.1,-15863.4
-20365,-27438.2,93750,-24976.2,-17680.1,-14362.6,-19703.2,-15861
-20363.8,-27432.1,93750,-24974.9,-17679.8,-14364,-19702.9,-15859.5
-20368.2,-27428.6,93750,-24977.3,-17678.7,-14364.4,-19702.1,-15853.3
-20366.1,-27434.8,93750,-24980,-17679.9,-14366.1,-19703.1,-15850.6
-20371.1,-27444.2,93750,-24982.3,-17683.5,-14368.5,-19706.4,-15852.6
-20376,-27449.7,93750,-24982.2,-17686.4,-14371.3,-19709.2,-15855.3
-20376,-27449.7,93750,-24978.6,-17688.4,-14374,-19711.3,-15860.2
-20375.1,-27443.7,93750,-24977.7,-17686.3,-14370.3,-19709.5,-15862
-20371.9,-27434.6,93750,-24972.1,-17683.1,-14366.2,-19706.4,-15861
-20367.8,-27425,93750,-24964.2,-17681.1,-14364.4,-19704.1,-15861.2
-20362.4,-27428.8,93750,-24968.8,-17679.7,-14362.7,-19702.8,-15867.8
-20365.4,-27436.9,93750,-24975.1,-17681.6,-14365.2,-19704.4,-15870.9
-20374.4,-27441.2,93750,-24972.4,-17686.9,-14372.3,-19709.8,-15871.3
-20377,-27449.4,93750,-24976.6,-17689.9,-14377.6,-19713.2,-15872.3
-20376.9,-27449.6,93750,-24981.2,-17692.2,-14378.1,-19715.2,-15872.3
-20378.3,-27446.3,93750,-24979.8,-17690.1,-14374.6,-19712.9,-15871
-20375.3,-27445.6,93750,-24978,-17684.8,-14368.7,-19707.7,-15868.4
-20371.3,-27447.9,93750,-24981.2,-17676.6,-14361.7,-19699.5,-15864.6
-20368.5,-27449.5,93750,-24976.4,-17673.7,-14360.9,-19696.5,-15862.5
-20369.5,-27449.6,93750,-24974.6,-17674.5,-14362.1,-19697.4,-15861.3
-20373.1,-27450.8,93750,-24982.8,-17676.5,-14365.2,-19699.3,-15860.9
-20378.1,-27449.9,93750,-24989.2,-17683,-14371.1,-19705.9,-15863.2
-20383.1,-27448.4,93750,-24990.1,-17687.9,-14375.4,-19711.1,-15866.5
-20384.4,-27448.4,93750,-24988,-17688,-14375.1,-19711.4,-15867.5
-20381.7,-27449.2,93750,-24985,-17685.6,-14372.6,-19708.6,-15866.6
-20377.2,-27443.9,93750,-24980.3,-17680.9,-14369.8,-19703.7,-15862.7
-20375,-27437.6,93750,-24976.8,-17676.4,-14368,-19699.1,-15850.6
-20369.3,-27440.2,93750,-24976.5,-17674.5,-14365,-19697.4,-15847.6
-20373.1,-27446.8,93750,-24977.4,-17675.7,-14366.6,-19698.9,-15849.5
-20375.4,-27451,93750,-24977.4,-17680.3,-14371.9,-19703.3,-15853.8
-20380.7,-27451.4,93750,-24976.7,-17686.1,-14377.1,-19709.1,-15861.5
-20380.5,-27451.5,93750,-24980.7,-17688.5,-14379.1,-19711.5,-15865.6
-20374.8,-27446.1,93750,-24981.2,-17688.3,-14378,-19710.9,-15866.4
-20371.4,-27442.9,93750,-24981.6,-17685.1,-14374.3,-19707.7,-15864.7
-20368.9,-27432.8,93750,-24979.3,-17676.8,-14365.7,-19699.5,-15854.9
-20365.6,-27429.9,93750,-24973.8,-17671.9,-14361.4,-19695,-15848.5
-20362.2,-27435.2,93750,-24975.2,-17672.2,-14362.1,-19695.2,-15848.4
-20366.9,-27438.4,93750,-24975.1,-17676.1,-14367.2,-19699.3,-15851.4
-20377.3,-27444.9,93750,-24976,-17682.2,-14373.5,-19705.4,-15857.7
-20381.3,-27449.7,93750,-24986.2,-17684.8,-14373.8,-19708.1,-15861.1
-20383.1,-27445.4,93750,-24985.8,-17686.8,-14373.8,-19709.5,-15862.1
-20374.7,-27442.5,93750,-24982.5,-17685.2,-14370.7,-19708,-15863.2
-20366.1,-27436.8,93750,-24975.6,-17681.6,-14364.4,-19704.6,-15868.8
-20365.9,-27433,93750,-24971.2,-17678.4,-14361.3,-19701.5,-15869.6
-20365.8,-27436.6,93750,-24975.2,-17675.5,-14360,-19698.8,-15866.4
-20370.1,-27439.7,93750,-24979.7,-17676.2,-14362.1,-19699.5,-15864.8
-20377.4,-27441.8,93750,-24983.5,-17681.6,-14368.3,-19704.3,-15865.3
-20381.6,-27451.2,93750,-24989.1,-17686.8,-14373,-19709.5,-15866.7
-20383.4,-27456.2,93750,-24991.4,-17688,-14373.2,-19711,-15866.8
-20387.9,-27453.5,93750,-24987.8,-17686.9,-14373,-19709.9,-15866.2
-20382.2,-27447.1,93750,-24984,-17683.8,-14369.5,-19706.8,-15864.8
-20370.9,-27443.9,93750,-24980.6,-17679.1,-14362.7,-19702,-15861.3
-20366.3,-27444,93750,-24977.8,-17675.7,-14359.4,-19698.6,-15859.1
-20368.3,-27445.4,93750,-24975.4,-17677.5,-14361.2,-19700.5,-15858.9
-20371.7,-27446.8,93750,-24976.9,-17682.7,-14365.5,-19705.6,-15861.5
-20378.6,-27445.4,93750,-24985.2,-17687.9,-14372.1,-19710.8,-15864.9
-20384.3,-27445,93750,-24992.7,-17691.9,-14377,-19714.8,-15867.2
-20382.1,-27445.7,93750,-24989.8,-17692.3,-14377.5,-19715,-15865.1
-20380.9,-27451.8,93750,-24985.5,-17687.9,-14373.8,-19710.9,-15852.9
-20371.6,-27451.8,93750,-24979.9,-17681.4,-14365.9,-19704.2,-15848.2
-20365.6,-27447,93750,-24978.6,-17676.6,-14360.5,-19699.4,-15847.2
-20364,-27439.7,93750,-24976.8,-17676.1,-14360,-19698.9,-15848.8
-20368.6,-27438.7,93750,-24977.7,-17679,-14362.5,-19702.1,-15855
-20380.1,-27442.6,93750,-24980.8,-17681.5,-14366.2,-19704.3,-15858.5
-20386.6,-27447.2,93750,-24984.2,-17685.6,-14370.9,-19708.5,-15860.5
-20387.7,-27449.2,93750,-24987.6,-17689.5,-14374.4,-19712.4,-15861.6
-20385.4,-27444.4,93750,-24987.9,-17684.5,-14368.4,-19707.2,-15854.7
-20378.4,-27440.4,93750,-24983.3,-17678.6,-14361.9,-19701.3,-15848.8
-20372.3,-27437.7,93750,-24978.5,-17673.7,-14356.2,-19696.4,-15846.9
-20369.7,-27434.1,93750,-24974.5,-17671.8,-14354.8,-19694.6,-15846.9
-20370,-27440,93750,-24976.8,-17671.7,-14356.4,-19694.9,-15850.3
-20371.7,-27443.9,93750,-24981.2,-17675.6,-14359.7,-19698.5,-15853.3
-20379,-27446.1,93750,-24983.8,-17682.5,-14366.3,-19705.2,-15855.7
-20381,-27446.6,93750,-24983.6,-17687.7,-14371.1,-19710.6,-15859
-20378.5,-27447,93750,-24981.3,-17689.3,-14370.6,-19712.3,-15866.5
-20373.5,-27450.8,93750,-24980.4,-17687.7,-14367.7,-19710.4,-15868.8
-20369.6,-27450,93750,-24977.7,-17682.8,-14362.1,-19705.4,-15865
-20366.8,-27448.3,93750,-24976.2,-17676.5,-14356.2,-19699.4,-15860.7
-20367.2,-27447.5,93750,-24977.6,-17674.6,-14356.2,-19697.4,-15858
-20370.2,-27448.7,93750,-24981.7,-17676.6,-14358.9,-19699.3,-15857.2
-20376.1,-27450.8,93750,-24990.3,-17679.2,-14361.8,-19702.3,-15857.8
-20381.3,-27455.7,93750,-24995.4,-17684.4,-14369.5,-19707.7,-15860.1
-20381.4,-27456.2,93750,-24993.3,-17688.2,-14372.7,-19711.2,-15861.6
-20379.8,-27458.2,93750,-24988.8,-17687,-14368.6,-19709.8,-15860.3
-20378.2,-27463.6,93750,-24982.4,-17681.3,-14362.2,-19704.1,-15857.7
-20375.3,-27455.8,93750,-24977.8,-17676,-14355.8,-19698.7,-15855.7
-20372.7,-27447.6,93750,-24981,-17672.9,-14352,-19695.7,-15855
-20374.8,-27450.4,93750,-24983.9,-17673.3,-14354,-19696.2,-15855.2
-20378.3,-27451.6,93750,-24983.1,-17678.6,-14360.4,-19701.3,-15856.3
-20383.5,-27455.3,93750,-24987.1,-17684.9,-14367.2,-19707.8,-15855.8
-20388.4,-27457.9,93750,-24992.1,-17688.6,-14371.2,-19711.5,-15846.6
-20386,-27451.9,93750,-24987.2,-17691.1,-14371.8,-19713.9,-15846.7
-20381.6,-27449,93750,-24980.8,-17690.7,-14369.2,-19713.7,-15849
-20371.7,-27451.1,93750,-24979.1,-17684.5,-14361.2,-19707.4,-15849.9
-20363.6,-27447.6,93750,-24976.7,-17679.3,-14355.2,-19702.1,-15852.5
-20361.6,-27444.6,93750,-24976.5,-17677.9,-14355.4,-19700.8,-15853.5
-20363.5,-27442.6,93750,-24977.3,-17680.1,-14359.5,-19702.9,-15854.5
-20372.2,-27446.1,93750,-24984.3,-17683.7,-14365.6,-19706.7,-15856.1
-20373.1,-27446,93750,-24993.2,-17685.4,-14369.1,-19708.4,-15852
-20369.8,-27448.2,93750,-24994.9,-17685.9,-14369.3,-19708.6,-15849.7
-20369,-27452,93750,-24989.6,-17683.8,-14365.7,-19706.3,-15850.4
-20365.4,-27452.5,93750,-24983.7,-17680.1,-14362,-19703,-15851.2
-20365.4,-27446.5,93750,-24979,-17676.4,-14358.6,-19699.5,-15853.8
-20366,-27442.9,93750,-24976,-17673.5,-14355.1,-19696.4,-15854.7
-20365.3,-27445.4,93750,-24978.9,-17672.5,-14354.8,-19695.4,-15854.3
-20368.8,-27446.8,93750,-24983.3,-17673.5,-14356.2,-19696.3,-15855.4
-20375.6,-27451.8,93750,-24985.4,-17678.8,-14361,-19701.6,-15864.4
-20383.5,-27459.7,93750,-24989.1,-17683.1,-14365.3,-19706,-15869.3
-20386.2,-27459.9,93750,-24993.4,-17682.9,-14364,-19705.6,-15867.8
-20384.2,-27456.7,93750,-24993.3,-17680.7,-14361,-19703.4,-15864.8
-20381,-27451.8,93750,-24990.7,-17675.4,-14355.9,-19698.4,-15861.1
-20378.8,-27448.9,93750,-24987,-17671.1,-14351.4,-19693.9,-15857.3
-20374.6,-27445.9,93750,-24984.3,-17671.7,-14352.5,-19694.8,-15855.9
-20376.2,-27445.3,93750,-24984.3,-17676,-14358.5,-19699.2,-15857.2
-20378.8,-27448.4,93750,-24988.8,-17679.2,-14362.5,-19702.2,-15858
-20383.8,-27449.6,93750,-24992.1,-17685.8,-14367.4,-19708.5,-15858.8
-20389.9,-27451.6,93750,-24993.4,-17689.2,-14369.6,-19712,-15860.1
-20386.6,-27454.8,93750,-24992.2,-17686.1,-14364.9,-19708.9,-15859.2
-20380.9,-27451.6,93750,-24986.1,-17685.4,-14363.1,-19708.3,-15859.4
-20380,-27446.9,93750,-24980.6,-17682.2,-14359.9,-19705.2,-15859.1
-20371.1,-27449.3,93750,-24989.3,-17675.4,-14353.6,-19698.4,-15856
-20369.6,-27445.6,93750,-24992.4,-17675.9,-14355.8,-19698.7,-15852.2
-20378.6,-27449.2,93750,-24988,-17678.5,-14360.1,-19701.2,-15842.3
-20386.9,-27451.2,93750,-24985.7,-17683,-14365.8,-19705.8,-15842.8
-20391.9,-27454.2,93750,-24986.8,-17686.1,-14369.2,-19709,-15847
-20387.9,-27458.3,93750,-24992.2,-17685.9,-14367.9,-19708.7,-15850.3
-20381.3,-27456.2,93750,-24991.8,-17683.3,-14364,-19706,-15854.6
-20380.4,-27449.8,93750,-24987.6,-17679.8,-14360.8,-19702.8,-15855.7
-20379,-27444.7,93750,-24983,-17674.9,-14356.4,-19697.9,-15854.2
-20378.5,-27447.3,93750,-24985.2,-17669.9,-14352.6,-19692.7,-15851.4
-20380.5,-27448.7,93750,-24988.8,-17667.5,-14352.2,-19690.4,-15844.1
-20380.2,-27451.5,93750,-24986.9,-17670.3,-14356.4,-19693.2,-15841.3
-20382.4,-27458.7,93750,-24991.1,-17674.4,-14360,-19697.3,-15843.9
-20383.5,-27461.2,93750,-24997.8,-17678,-14362.4,-19700.8,-15846.8
-20385.9,-27458.3,93750,-24992.8,-17680.1,-14362.8,-19702.8,-15851.2
-20386.2,-27453.6,93750,-24989.9,-17677.4,-14359.6,-19700.4,-15852.3
-20379.2,-27448.5,93750,-24987.9,-17673.6,-14354.9,-19696.5,-15850.5
-20373.4,-27445.1,93750,-24981.7,-17671.2,-14351.9,-19694.1,-15850
-20374.2,-27448.4,93750,-24977.2,-17670,-14349.4,-19692.9,-15856.6
-20378.6,-27454,93750,-24981.1,-17672.6,-14353.3,-19695.5,-15860
-20382.1,-27457.8,93750,-24987.4,-17678.2,-14359.9,-19701.2,-15860
-20387.3,-27460.2,93750,-24990.9,-17682.7,-14364,-19705.7,-15860.2
-20390.8,-27462.6,93750,-24987.8,-17685.7,-14366.5,-19708.7,-15860.7
-20383.7,-27465.5,93750,-24990.1,-17683.6,-14363.3,-19706.6,-15859.2
-20379.1,-27458.8,93750,-24992.5,-17678.4,-14358.5,-19701.4,-15857
-20375.6,-27454.3,93750,-24990.4,-17674.8,-14356.3,-19697.7,-15855.1
-20376.5,-27452.8,93750,-24987.5,-17670.9,-14352.7,-19693.4,-15852.9
-20379.8,-27457.4,93750,-24988.2,-17670.2,-14352.9,-19693,-15851
-20381.3,-27463.9,93750,-24992.5,-17673.2,-14357.2,-19696.1,-15851.7
-20381.8,-27471.2,93750,-24998.1,-17676.5,-14360.9,-19699.5,-15853.7
-20382.1,-27473,93750,-24998.7,-17681.4,-14365.2,-19704.1,-15857.1
-20387.4,-27466.4,93750,-24994.6,-17683.8,-14367.1,-19706.4,-15858.6
-20389.9,-27461.4,93750,-24990.8,-17681.1,-14363.2,-19703.7,-15857.2
-20385.3,-27462,93750,-24990.6,-17674.5,-14356.2,-19697.2,-15851.3
-20384.2,-27458.4,93750,-24990.4,-17669.5,-14352.9,-19692.5,-15838.1
-20379.5,-27455,93750,-24992,-17668.4,-14351.6,-19691.1,-15835
-20382.9,-27453.9,93750,-24992.6,-17672.4,-14355.4,-19695.1,-15837.7
-20386.2,-27457.4,93750,-24993.2,-17675.8,-14359.3,-19698.7,-15842.2
-20390.7,-27463.3,93750,-24992.8,-17680.9,-14364.2,-19704,-15850.6
-20392.9,-27467.8,93750,-24993.6,-17682.5,-14365.3,-19705.6,-15854.4
-20389.4,-27465.2,93750,-24990.9,-17681.3,-14363.5,-19704.4,-15853.9
-20386.2,-27459.2,93750,-24988.3,-17679.3,-14362.1,-19702.4,-15853
-20381.4,-27451.3,93750,-24987.7,-17670.4,-14353.4,-19693.5,-15845.1
-20374.5,-27449.8,93750,-24984.5,-17665.1,-14347.9,-19687.8,-15839.1
-20374.1,-27450.3,93750,-24987.4,-17665.6,-14349.3,-19688.4,-15839.5
-20380.2,-27450.6,93750,-24987.5,-17669.8,-14355,-19692.6,-15842.8
-20388.5,-27460.1,93750,-24991.9,-17674.6,-14361.5,-19697.6,-15849.1
-20389.8,-27466.2,93750,-25001.3,-17677.2,-14363.5,-19700.1,-15853.2
-20387.1,-27465.6,93750,-25001.8,-17677.2,-14362.4,-19700,-15854
-20381,-27464,93750,-24993.9,-17676.1,-14359,-19698.8,-15854.4
-20373.1,-27460.5,93750,-24989.3,-17672.4,-14352.6,-19694.9,-15859.3
-20371.5,-27459.5,93750,-24989.2,-17668.7,-14348.2,-19691.1,-15859.9
-20375.8,-27455.6,93750,-24985.7,-17668.1,-14348.5,-19691,-15857.1
-20378.5,-27455.2,93750,-24986.8,-17671.5,-14353.3,-19694.6,-15856.7
-20381.6,-27461.7,93750,-24991.3,-17675.1,-14357.6,-19698.1,-15857
-20383.8,-27474.8,93750,-24999.6,-17678.9,-14361,-19701.8,-15857
